Text Inputs : Specimen label;"1"
Dimension : Length;50,00000;mm
Dimension : Final length;100,00000;mm
Test : Rate 1;2,00000;mm/min
General : Unique Identifier;"{52134FE5-1066-4B6D-821D-409424F962F6}"

Time;Extension;Load;Strain 1
(sec);(mm);(N);(mm/mm)
0,00000;0,00000;28,14633;0,00028
0,10000;0,00188;27,13422;0,00028
0,20000;0,00493;27,77658;0,00028
0,30000;0,00846;28,11499;0,00028
0,40000;0,01211;29,98564;0,00028
0,50000;0,01573;32,47046;0,00030
0,60000;0,01926;35,66968;0,00033
0,70000;0,02282;39,38279;0,00035
0,80000;0,02632;42,85149;0,00038
0,90000;0,02980;45,96298;0,00041
1,00000;0,03322;48,90527;0,00043
1,10000;0,03661;52,72805;0,00045
1,20000;0,03994;54,35116;0,00048
1,30000;0,04325;56,25315;0,00050
1,40000;0,04664;59,84405;0,00052
1,50000;0,05003;61,72725;0,00054
1,60000;0,05336;63,77337;0,00055
1,70000;0,05672;64,32172;0,00057
1,80000;0,06003;64,82621;0,00058
1,90000;0,06330;66,32399;0,00059
2,00000;0,06658;66,84100;0,00059
2,10000;0,06994;66,98200;0,00060
2,20000;0,07330;66,67179;0,00061
2,30000;0,07667;67,68702;0,00061
2,40000;0,08003;67,50842;0,00062
2,50000;0,08336;67,48962;0,00062
2,60000;0,08664;68,37951;0,00062
2,70000;0,09000;68,36071;0,00063
2,80000;0,09339;68,30117;0,00063
2,90000;0,09672;68,44845;0,00064
3,00000;0,10006;68,27611;0,00064
3,10000;0,10336;68,55498;0,00065
3,20000;0,10664;68,46411;0,00065
3,30000;0,10994;68,57065;0,00065
3,40000;0,11328;69,15660;0,00065
3,50000;0,11664;69,07199;0,00066
3,60000;0,11997;70,12796;0,00066
3,70000;0,12330;69,01559;0,00066
3,80000;0,12664;69,49814;0,00067
3,90000;0,12991;71,55994;0,00067
4,00000;0,13328;70,32224;0,00068
4,10000;0,13667;70,17496;0,00068
4,20000;0,14003;69,52321;0,00068
4,30000;0,14342;70,20003;0,00068
4,40000;0,14675;70,16556;0,00068
4,50000;0,15006;70,57918;0,00069
4,60000;0,15333;71,07739;0,00069
4,70000;0,15667;71,03352;0,00070
4,80000;0,16000;71,19332;0,00070
4,90000;0,16333;72,10829;0,00070
5,00000;0,16667;71,32806;0,00070
5,10000;0,17000;72,13962;0,00070
5,20000;0,17330;71,62574;0,00071
5,30000;0,17658;71,79808;0,00071
5,40000;0,17997;72,60650;0,00071
5,50000;0,18333;71,93908;0,00071
5,60000;0,18667;72,92298;0,00071
5,70000;0,19003;71,52860;0,00071
5,80000;0,19336;71,11499;0,00071
5,90000;0,19664;72,29316;0,00072
6,00000;0,19997;71,70407;0,00072
6,10000;0,20336;71,54427;0,00072
6,20000;0,20669;71,36253;0,00072
6,30000;0,21000;71,97042;0,00072
6,40000;0,21333;72,17096;0,00072
6,50000;0,21664;71,63514;0,00072
6,60000;0,21991;72,10829;0,00073
6,70000;0,22328;72,67230;0,00073
6,80000;0,22664;71,86388;0,00073
6,90000;0,23003;72,49683;0,00073
7,00000;0,23336;71,70720;0,00073
7,10000;0,23669;73,09845;0,00073
7,20000;0,24003;72,49370;0,00073
7,30000;0,24336;72,26182;0,00073
7,40000;0,24672;72,45609;0,00073
7,50000;0,25009;72,64410;0,00073
7,60000;0,25342;72,16783;0,00074
7,70000;0,25672;72,54384;0,00074
7,80000;0,26003;72,65350;0,00074
7,90000;0,26328;73,38045;0,00074
8,00000;0,26658;72,98251;0,00074
8,10000;0,26994;72,61904;0,00074
8,20000;0,27333;72,69423;0,00074
8,30000;0,27667;73,29899;0,00075
8,40000;0,28003;73,41492;0,00075
8,50000;0,28336;72,31822;0,00075
8,60000;0,28664;74,12621;0,00075
8,70000;0,29000;73,69693;0,00075
8,80000;0,29336;72,94178;0,00075
8,90000;0,29669;73,33659;0,00075
9,00000;0,30006;73,64367;0,00075
9,10000;0,30336;74,60876;0,00076
9,20000;0,30664;73,81287;0,00076
9,30000;0,30991;74,54609;0,00076
9,40000;0,31328;74,39882;0,00076
9,50000;0,31667;74,32675;0,00076
9,60000;0,32000;75,17592;0,00076
9,70000;0,32333;74,89703;0,00077
9,80000;0,32667;75,08817;0,00077
9,90000;0,32991;75,74619;0,00077
10,00000;0,33325;76,31961;0,00077
10,10000;0,33664;75,72112;0,00077
10,20000;0,34000;75,43286;0,00078
10,30000;0,34336;77,09357;0,00078
10,40000;0,34672;77,53852;0,00078
10,50000;0,35006;76,85856;0,00078
10,60000;0,35328;78,33127;0,00079
10,70000;0,35664;78,27174;0,00079
10,80000;0,36003;77,98346;0,00080
10,90000;0,36336;78,40648;0,00080
11,00000;0,36669;79,33710;0,00080
11,10000;0,37000;79,91365;0,00081
11,20000;0,37333;80,23640;0,00081
11,30000;0,37667;80,77847;0,00081
11,40000;0,38006;81,93784;0,00082
11,50000;0,38342;82,78700;0,00083
11,60000;0,38672;83,68629;0,00083
11,70000;0,39006;84,95847;0,00084
11,80000;0,39336;86,09904;0,00085
11,90000;0,39664;87,02026;0,00086
12,00000;0,39997;87,90701;0,00087
12,10000;0,40330;89,58026;0,00087
12,20000;0,40667;89,58654;0,00088
12,30000;0,41000;90,74904;0,00089
12,40000;0,41333;92,42855;0,00090
12,50000;0,41664;93,04583;0,00091
12,60000;0,41991;96,14479;0,00093
12,70000;0,42328;97,56424;0,00094
12,80000;0,42664;98,68913;0,00096
12,90000;0,43000;101,83509;0,00097
13,00000;0,43333;103,54908;0,00099
13,10000;0,43669;104,95285;0,00101
13,20000;0,44000;106,84858;0,00102
13,30000;0,44330;108,79131;0,00104
13,40000;0,44667;110,64629;0,00105
13,50000;0,45000;112,44487;0,00107
13,60000;0,45336;114,99235;0,00108
13,70000;0,45669;116,20811;0,00110
13,80000;0,46003;118,45165;0,00112
13,90000;0,46328;120,33484;0,00113
14,00000;0,46661;121,94855;0,00115
14,10000;0,46997;124,43649;0,00117
14,20000;0,47333;125,74940;0,00119
14,30000;0,47667;128,66348;0,00121
14,40000;0,48003;129,84165;0,00122
14,50000;0,48336;132,66488;0,00124
14,60000;0,48664;136,03017;0,00126
14,70000;0,48997;135,96436;0,00128
14,80000;0,49336;138,47111;0,00130
14,90000;0,49672;139,94068;0,00131
15,00000;0,50006;142,97697;0,00133
15,10000;0,50336;144,30555;0,00135
15,20000;0,50667;145,74066;0,00137
15,30000;0,50994;148,78322;0,00138
15,40000;0,51330;150,52853;0,00140
15,50000;0,51669;152,72819;0,00142
15,60000;0,52003;155,40414;0,00144
15,70000;0,52339;156,62304;0,00146
15,80000;0,52669;158,33389;0,00148
15,90000;0,52997;160,34555;0,00150
16,00000;0,53328;162,44808;0,00151
16,10000;0,53667;165,40603;0,00153
16,20000;0,54003;166,93828;0,00155
16,30000;0,54336;169,14734;0,00157
16,40000;0,54669;170,60752;0,00159
16,50000;0,55003;172,69438;0,00161
16,60000;0,55328;175,36093;0,00162
16,70000;0,55664;176,30096;0,00164
16,80000;0,56000;178,42855;0,00166
16,90000;0,56336;180,35561;0,00168
17,00000;0,56669;182,56780;0,00170
17,10000;0,57000;185,47563;0,00172
17,20000;0,57330;186,78226;0,00174
17,30000;0,57661;188,73753;0,00176
17,40000;0,58000;190,93718;0,00178
17,50000;0,58339;192,30336;0,00179
17,60000;0,58672;195,35217;0,00181
17,70000;0,59006;196,54916;0,00183
17,80000;0,59336;198,51380;0,00185
17,90000;0,59664;201,13648;0,00187
18,00000;0,59997;202,21125;0,00189
18,10000;0,60333;205,19739;0,00191
18,20000;0,60667;206,99285;0,00193
18,30000;0,61000;208,91991;0,00195
18,40000;0,61333;211,42352;0,00197
18,50000;0,61667;213,00591;0,00199
18,60000;0,61994;216,20512;0,00201
18,70000;0,62333;216,17692;0,00203
18,80000;0,62669;219,65504;0,00205
18,90000;0,63003;221,32513;0,00207
19,00000;0,63336;223,39635;0,00209
19,10000;0,63669;226,15688;0,00211
19,20000;0,63997;227,35386;0,00213
19,30000;0,64328;230,20213;0,00215
19,40000;0,64667;231,51818;0,00217
19,50000;0,65003;233,47656;0,00219
19,60000;0,65339;235,40675;0,00222
19,70000;0,65672;237,78817;0,00224
19,80000;0,66003;239,82488;0,00225
19,90000;0,66330;241,79267;0,00228
20,00000;0,66664;243,87641;0,00229
20,10000;0,67000;246,69962;0,00232
20,20000;0,67336;247,66158;0,00234
20,30000;0,67669;250,37513;0,00236
20,40000;0,68003;252,51526;0,00238
20,50000;0,68336;254,07569;0,00240
20,60000;0,68661;257,31567;0,00242
20,70000;0,68994;257,84522;0,00244
20,80000;0,69330;260,18589;0,00246
20,90000;0,69667;261,89361;0,00248
21,00000;0,70003;263,98359;0,00250
21,10000;0,70336;266,82247;0,00252
21,20000;0,70667;268,09466;0,00254
21,30000;0,70997;270,14704;0,00256
21,40000;0,71333;273,10187;0,00258
21,50000;0,71669;273,88523;0,00260
21,60000;0,72006;276,46404;0,00262
21,70000;0,72336;278,05269;0,00264
21,80000;0,72669;279,96721;0,00266
21,90000;0,72997;282,19507;0,00268
22,00000;0,73325;283,83699;0,00270
22,10000;0,73661;286,15259;0,00272
22,20000;0,74000;287,94489;0,00274
22,30000;0,74336;289,94717;0,00277
22,40000;0,74672;291,90555;0,00279
22,50000;0,75003;293,26547;0,00281
22,60000;0,75330;296,39576;0,00283
22,70000;0,75667;296,90650;0,00285
22,80000;0,76003;298,72388;0,00287
22,90000;0,76333;301,13976;0,00289
23,00000;0,76669;303,41463;0,00291
23,10000;0,77000;305,92137;0,00293
23,20000;0,77330;306,95540;0,00295
23,30000;0,77661;309,44333;0,00297
23,40000;0,78000;311,19180;0,00299
23,50000;0,78336;313,07498;0,00301
23,60000;0,78669;315,63498;0,00303
23,70000;0,79003;317,03250;0,00305
23,80000;0,79336;319,15696;0,00307
23,90000;0,79664;320,76440;0,00309
24,00000;0,79997;322,69459;0,00311
24,10000;0,80339;324,37097;0,00313
24,20000;0,80675;325,45514;0,00315
24,30000;0,81008;327,55141;0,00317
24,40000;0,81339;329,81061;0,00319
24,50000;0,81669;331,72513;0,00321
24,60000;0,81994;334,16294;0,00323
24,70000;0,82330;335,15936;0,00325
24,80000;0,82664;336,85141;0,00327
24,90000;0,82997;339,14822;0,00329
25,00000;0,83333;341,01261;0,00331
25,10000;0,83664;343,21854;0,00333
25,20000;0,83994;345,38372;0,00335
25,30000;0,84328;347,09144;0,00337
25,40000;0,84667;348,93390;0,00339
25,50000;0,85006;350,25619;0,00341
25,60000;0,85339;352,20834;0,00343
25,70000;0,85672;353,69671;0,00345
25,80000;0,86003;355,42010;0,00347
25,90000;0,86328;356,86772;0,00349
26,00000;0,86661;359,50295;0,00351
26,10000;0,87000;361,22319;0,00353
26,20000;0,87336;363,28498;0,00355
26,30000;0,87667;365,84185;0,00357
26,40000;0,88003;366,64088;0,00359
26,50000;0,88336;368,53661;0,00361
26,60000;0,88661;370,96816;0,00363
26,70000;0,88997;371,64809;0,00365
26,80000;0,89333;374,74078;0,00367
26,90000;0,89672;376,20724;0,00368
27,00000;0,90006;377,37601;0,00370
27,10000;0,90339;379,56941;0,00373
27,20000;0,90667;380,68176;0,00374
27,30000;0,90997;383,73999;0,00376
27,40000;0,91330;384,83669;0,00378
27,50000;0,91667;386,39086;0,00381
27,60000;0,92003;388,47772;0,00382
27,70000;0,92333;390,06637;0,00384
27,80000;0,92664;391,99968;0,00386
27,90000;0,92991;393,30320;0,00388
28,00000;0,93325;396,11389;0,00390
28,10000;0,93664;397,21057;0,00392
28,20000;0,94000;398,49840;0,00394
28,30000;0,94342;401,41563;0,00396
28,40000;0,94675;402,72856;0,00398
28,50000;0,95008;404,68378;0,00400
28,60000;0,95333;406,59206;0,00402
28,70000;0,95667;407,35034;0,00404
28,80000;0,96003;408,71650;0,00406
28,90000;0,96336;410,94753;0,00408
29,00000;0,96669;412,95290;0,00410
29,10000;0,97000;415,29983;0,00412
29,20000;0,97330;415,96415;0,00413
29,30000;0,97658;418,36435;0,00415
29,40000;0,97997;419,70857;0,00417
29,50000;0,98333;421,10607;0,00419
29,60000;0,98669;423,19293;0,00421
29,70000;0,99003;424,94764;0,00423
29,80000;0,99336;426,00050;0,00425
29,90000;0,99667;427,85234;0,00427
30,00000;0,99997;429,48173;0,00429
30,10000;1,00339;431,42131;0,00431
30,20000;1,00672;433,41420;0,00433
30,30000;1,01003;434,93076;0,00434
30,40000;1,01336;435,63577;0,00436
30,50000;1,01667;438,07044;0,00438
30,60000;1,01991;440,47376;0,00440
30,70000;1,02328;440,56778;0,00442
30,80000;1,02664;442,76747;0,00444
30,90000;1,02997;444,35295;0,00446
31,00000;1,03333;446,09201;0,00448
31,10000;1,03664;448,47028;0,00450
31,20000;1,03994;450,00878;0,00451
31,30000;1,04325;452,06747;0,00453
31,40000;1,04667;453,66236;0,00455
31,50000;1,05003;454,31415;0,00457
31,60000;1,05339;456,42918;0,00459
31,70000;1,05672;457,93639;0,00461
31,80000;1,06006;460,01696;0,00463
31,90000;1,06330;461,33925;0,00465
32,00000;1,06661;463,17857;0,00467
32,10000;1,06997;464,96466;0,00469
32,20000;1,07333;466,50004;0,00470
32,30000;1,07667;468,88455;0,00472
32,40000;1,08003;469,42350;0,00474
32,50000;1,08336;470,91502;0,00476
32,60000;1,08664;473,23373;0,00478
32,70000;1,09000;475,07933;0,00480
32,80000;1,09342;476,47683;0,00482
32,90000;1,09678;478,03414;0,00484
33,00000;1,10008;480,52524;0,00486
33,10000;1,10339;481,20520;0,00488
33,20000;1,10667;483,18235;0,00490
33,30000;1,10994;485,39145;0,00491
33,40000;1,11328;486,25940;0,00493
33,50000;1,11664;487,08036;0,00495
33,60000;1,11997;489,28629;0,00497
33,70000;1,12330;490,49892;0,00499
33,80000;1,12664;492,58890;0,00501
33,90000;1,12988;494,07105;0,00503
34,00000;1,13325;495,97928;0,00504
34,10000;1,13664;498,38577;0,00506
34,20000;1,14000;498,95602;0,00509
34,30000;1,14339;500,61988;0,00510
34,40000;1,14675;502,23358;0,00512
34,50000;1,15006;503,96323;0,00514
34,60000;1,15333;505,89032;0,00516
34,70000;1,15664;506,92749;0,00518
34,80000;1,16000;508,54119;0,00520
34,90000;1,16333;510,06088;0,00522
35,00000;1,16667;511,90024;0,00524
35,10000;1,17000;513,83041;0,00525
35,20000;1,17330;514,75791;0,00527
35,30000;1,17658;517,00771;0,00529
35,40000;1,17997;518,34881;0,00531
35,50000;1,18333;520,12545;0,00533
35,60000;1,18669;521,86139;0,00535
35,70000;1,19006;523,22131;0,00537
35,80000;1,19339;524,73787;0,00539
35,90000;1,19667;526,18864;0,00541
36,00000;1,20000;527,92458;0,00543
36,10000;1,20339;530,35296;0,00545
36,20000;1,20672;531,28358;0,00546
36,30000;1,21003;532,58082;0,00548
36,40000;1,21333;535,11891;0,00550
36,50000;1,21664;536,03072;0,00552
36,60000;1,21991;537,67576;0,00554
36,70000;1,22327;540,07913;0,00556
36,80000;1,22664;540,79667;0,00558
36,90000;1,23000;542,86160;0,00560
37,00000;1,23333;544,24657;0,00562
37,10000;1,23669;545,99503;0,00563
37,20000;1,24000;547,35178;0,00565
37,30000;1,24330;549,11594;0,00567
37,40000;1,24669;551,21845;0,00569
37,50000;1,25006;552,61282;0,00571
37,60000;1,25336;553,85050;0,00573
37,70000;1,25669;555,80894;0,00575
37,80000;1,26003;556,96513;0,00577
37,90000;1,26325;559,39984;0,00579
38,00000;1,26658;560,72841;0,00581
38,10000;1,26994;562,61159;0,00582
38,20000;1,27330;563,91507;0,00584
38,30000;1,27667;566,10536;0,00586
38,40000;1,28003;566,41558;0,00588
38,50000;1,28336;568,53690;0,00590
38,60000;1,28664;570,29161;0,00592
38,70000;1,29000;572,63542;0,00594
38,80000;1,29339;573,55976;0,00596
38,90000;1,29672;575,50562;0,00598
39,00000;1,30008;576,95014;0,00600
39,10000;1,30336;578,27556;0,00601
39,20000;1,30664;579,32525;0,00604
39,30000;1,30994;581,27111;0,00605
39,40000;1,31330;582,97571;0,00607
39,50000;1,31667;584,38890;0,00609
39,60000;1,32000;586,56349;0,00611
39,70000;1,32333;587,03348;0,00613
39,80000;1,32664;588,92923;0,00615
39,90000;1,32991;591,29498;0,00617
40,00000;1,33325;592,01252;0,00619
40,10000;1,33661;593,92075;0,00620
40,20000;1,34003;595,97003;0,00622
40,30000;1,34342;597,27351;0,00624
40,40000;1,34672;598,39846;0,00626
40,50000;1,35006;600,62944;0,00628
40,60000;1,35330;601,84519;0,00630
40,70000;1,35664;603,43700;0,00632
40,80000;1,36000;605,07264;0,00634
40,90000;1,36333;606,58292;0,00636
41,00000;1,36667;608,60398;0,00638
41,10000;1,37000;610,84442;0,00640
41,20000;1,37330;611,52750;0,00642
41,30000;1,37664;613,22581;0,00643
41,40000;1,38003;614,11881;0,00645
41,50000;1,38342;616,09917;0,00647
41,60000;1,38675;617,87581;0,00650
41,70000;1,39006;620,25096;0,00652
41,80000;1,39336;621,58890;0,00654
41,90000;1,39664;622,79217;0,00656
42,00000;1,39994;624,97617;0,00658
42,10000;1,40330;626,39248;0,00660
42,20000;1,40667;628,10644;0,00662
42,30000;1,41000;629,73895;0,00664
42,40000;1,41330;632,04202;0,00666
42,50000;1,41664;633,05097;0,00668
42,60000;1,41991;634,80572;0,00670
42,70000;1,42327;636,84871;0,00672
42,80000;1,42666;637,97361;0,00674
42,90000;1,43000;639,38363;0,00676
43,00000;1,43336;641,05061;0,00678
43,10000;1,43669;642,59851;0,00680
43,20000;1,44000;644,55378;0,00682
43,30000;1,44330;646,02965;0,00684
43,40000;1,44667;647,74989;0,00686
43,50000;1,45003;649,54222;0,00688
43,60000;1,45339;651,25930;0,00690
43,70000;1,45669;651,99570;0,00692
43,80000;1,46003;653,74100;0,00694
43,90000;1,46327;655,28578;0,00696
44,00000;1,46658;658,01186;0,00697
44,10000;1,47000;658,58527;0,00699
44,20000;1,47333;660,17080;0,00701
44,30000;1,47667;661,38031;0,00703
44,40000;1,48006;662,70572;0,00705
44,50000;1,48339;664,79887;0,00707
44,60000;1,48666;665,82975;0,00709
44,70000;1,49000;666,61625;0,00711
44,80000;1,49339;668,08583;0,00712
44,90000;1,49672;669,60240;0,00714
45,00000;1,50003;670,90592;0,00715
45,10000;1,50336;671,50127;0,00717
45,20000;1,50664;673,20582;0,00719
45,30000;1,50994;674,61901;0,00721
45,40000;1,51330;675,32402;0,00722
45,50000;1,51666;676,73093;0,00724
45,60000;1,52003;678,63292;0,00726
45,70000;1,52339;679,46641;0,00727
45,80000;1,52669;680,31247;0,00729
45,90000;1,52994;681,72561;0,00731
46,00000;1,53327;683,43333;0,00733
46,10000;1,53666;684,47990;0,00735
46,20000;1,54003;686,12495;0,00736
46,30000;1,54336;686,85506;0,00738
46,40000;1,54669;688,66615;0,00740
46,50000;1,55003;690,03860;0,00741
46,60000;1,55327;691,24810;0,00743
46,70000;1,55664;692,36360;0,00745
46,80000;1,56000;693,78302;0,00747
46,90000;1,56336;694,71993;0,00748
47,00000;1,56669;696,29294;0,00750
47,10000;1,57000;697,89095;0,00752
47,20000;1,57330;698,88113;0,00754
47,30000;1,57664;699,88384;0,00755
47,40000;1,58003;701,56646;0,00757
47,50000;1,58339;702,80102;0,00759
47,60000;1,58672;703,96042;0,00761
47,70000;1,59003;705,10409;0,00763
47,80000;1,59336;705,45818;0,00764
47,90000;1,59664;707,67663;0,00766
48,00000;1,59997;709,78231;0,00768
48,10000;1,60333;711,21431;0,00770
48,20000;1,60669;711,67802;0,00771
48,30000;1,61003;712,45511;0,00773
48,40000;1,61333;714,25997;0,00775
48,50000;1,61666;715,38487;0,00777
48,60000;1,61991;717,37459;0,00778
48,70000;1,62327;718,75332;0,00780
48,80000;1,62664;720,18844;0,00782
48,90000;1,63000;721,18170;0,00784
49,00000;1,63336;723,49734;0,00785
49,10000;1,63666;723,57566;0,00787
49,20000;1,63997;724,88855;0,00789
49,30000;1,64327;726,13568;0,00791
49,40000;1,64666;727,83083;0,00792
49,50000;1,65003;729,48216;0,00794
49,60000;1,65339;730,06186;0,00796
49,70000;1,65672;731,89177;0,00798
49,80000;1,66006;732,78793;0,00800
49,90000;1,66333;733,93164;0,00801
50,00000;1,66664;735,83676;0,00803
50,10000;1,67003;736,99923;0,00805
50,20000;1,67339;737,30317;0,00807
50,30000;1,67672;739,34305;0,00809
50,40000;1,68006;740,85025;0,00810
50,50000;1,68336;741,93440;0,00812
50,60000;1,68661;742,84310;0,00814
50,70000;1,68994;744,82970;0,00816
50,80000;1,69330;745,54412;0,00818
50,90000;1,69666;747,45235;0,00819
51,00000;1,70003;748,18558;0,00821
51,10000;1,70336;749,81810;0,00823
51,20000;1,70664;750,59831;0,00825
51,30000;1,70994;752,34678;0,00826
51,40000;1,71330;753,27428;0,00828
51,50000;1,71666;754,34274;0,00830
51,60000;1,72003;756,50797;0,00832
51,70000;1,72336;757,85848;0,00833
51,80000;1,72669;758,72014;0,00835
51,90000;1,72994;759,59750;0,00837
52,00000;1,73327;761,79719;0,00839
52,10000;1,73661;762,49591;0,00840
52,20000;1,74000;763,83078;0,00842
52,30000;1,74333;765,28783;0,00844
52,40000;1,74672;766,90465;0,00846
52,50000;1,75003;767,84780;0,00848
52,60000;1,75330;769,53359;0,00849
52,70000;1,75666;770,49243;0,00851
52,80000;1,76000;771,78339;0,00853
52,90000;1,76336;773,18405;0,00855
53,00000;1,76669;774,67244;0,00857
53,10000;1,77003;775,92582;0,00858
53,20000;1,77330;776,57755;0,00860
53,30000;1,77664;778,17873;0,00862
53,40000;1,78000;779,40389;0,00864
53,50000;1,78339;780,76692;0,00866
53,60000;1,78672;782,39944;0,00867
53,70000;1,79005;783,70292;0,00869
53,80000;1,79339;784,42367;0,00871
53,90000;1,79666;785,81488;0,00873
54,00000;1,80000;788,01457;0,00874
54,10000;1,80339;789,00782;0,00876
54,20000;1,80672;790,12020;0,00878
54,30000;1,81005;791,33594;0,00880
54,40000;1,81339;792,65516;0,00881
54,50000;1,81669;794,23748;0,00883
54,60000;1,81994;795,52224;0,00885
54,70000;1,82327;796,65966;0,00887
54,80000;1,82664;797,68430;0,00888
54,90000;1,82997;799,16008;0,00890
55,00000;1,83330;800,36651;0,00892
55,10000;1,83664;800,95557;0,00894
55,20000;1,83994;802,83880;0,00895
55,30000;1,84325;803,49054;0,00897
55,40000;1,84666;804,92245;0,00899
55,50000;1,85005;806,79944;0,00901
55,60000;1,85339;808,17183;0,00903
55,70000;1,85672;808,73584;0,00904
55,80000;1,86005;810,20230;0,00906
55,90000;1,86333;811,63431;0,00908
56,00000;1,86664;813,31069;0,00910
56,10000;1,87003;814,95261;0,00911
56,20000;1,87336;815,03717;0,00913
56,30000;1,87666;816,27807;0,00915
56,40000;1,88000;817,60036;0,00917
56,50000;1,88333;819,86263;0,00919
56,60000;1,88661;820,65230;0,00920
56,70000;1,88997;822,19392;0,00922
56,80000;1,89333;823,07439;0,00924
56,90000;1,89669;824,43124;0,00926
57,00000;1,90003;825,86948;0,00927
57,10000;1,90339;827,12285;0,00929
57,20000;1,90666;828,30722;0,00931
57,30000;1,90994;830,10895;0,00932
57,40000;1,91333;830,05568;0,00934
57,50000;1,91666;832,09556;0,00936
57,60000;1,92000;834,20752;0,00938
57,70000;1,92336;834,84361;0,00940
57,80000;1,92666;835,53921;0,00942
57,90000;1,92991;836,85834;0,00943
58,00000;1,93325;838,77919;0,00945
58,10000;1,93664;839,30874;0,00947
58,20000;1,94000;841,14494;0,00949
58,30000;1,94339;842,46406;0,00950
58,40000;1,94675;843,42603;0,00952
58,50000;1,95008;845,30292;0,00954
58,60000;1,95336;846,02991;0,00956
58,70000;1,95669;847,32715;0,00958
58,80000;1,96005;848,00087;0,00959
58,90000;1,96336;849,53932;0,00961
59,00000;1,96669;850,82715;0,00963
59,10000;1,97000;851,81110;0,00964
59,20000;1,97327;853,19290;0,00966
59,30000;1,97658;854,83165;0,00968
59,40000;1,97994;855,49597;0,00970
59,50000;1,98333;856,79945;0,00972
59,60000;1,98666;859,16836;0,00973
59,70000;1,99003;859,88594;0,00975
59,80000;1,99336;861,21764;0,00977
59,90000;1,99666;862,02603;0,00979
60,00000;2,00000;863,51754;0,00980
60,10000;2,00336;865,31611;0,00982
60,20000;2,00669;866,32827;0,00984
60,30000;2,01003;867,23063;0,00986
60,40000;2,01333;868,23646;0,00988
60,50000;2,01666;870,06018;0,00990
60,60000;2,01991;871,06284;0,00991
60,70000;2,02325;872,58257;0,00993
60,80000;2,02664;873,67930;0,00995
60,90000;2,03000;874,13359;0,00997
61,00000;2,03336;875,11120;0,00999
61,10000;2,03666;877,24505;0,01000
61,20000;2,03997;878,44515;0,01002
61,30000;2,04330;879,09382;0,01004
61,40000;2,04669;880,21243;0,01006
61,50000;2,05008;882,45915;0,01007
61,60000;2,05342;882,60639;0,01009
61,70000;2,05675;884,90322;0,01011
61,80000;2,06005;885,56437;0,01013
61,90000;2,06330;886,57327;0,01015
62,00000;2,06658;888,40006;0,01016
62,10000;2,06997;889,02675;0,01018
62,20000;2,07333;890,35537;0,01020
62,30000;2,07666;891,67766;0,01022
62,40000;2,08003;893,20680;0,01024
62,50000;2,08336;895,24658;0,01025
62,60000;2,08661;896,19607;0,01027
62,70000;2,09000;897,37112;0,01029
62,80000;2,09339;897,94761;0,01031
62,90000;2,09675;898,87511;0,01033
63,00000;2,10008;900,27265;0,01034
63,10000;2,10342;901,31611;0,01036
63,20000;2,10666;902,75118;0,01038
63,30000;2,10994;904,22388;0,01040
63,40000;2,11330;904,84433;0,01041
63,50000;2,11664;906,74628;0,01043
63,60000;2,11997;908,10303;0,01045
63,70000;2,12330;908,88953;0,01047
63,80000;2,12664;910,60977;0,01049
63,90000;2,12988;911,19260;0,01050
64,00000;2,13322;912,53370;0,01052
64,10000;2,13664;914,16622;0,01054
64,20000;2,14000;914,25395;0,01056
64,30000;2,14339;915,96479;0,01057
64,40000;2,14675;918,08615;0,01059
64,50000;2,15008;918,63768;0,01061
64,60000;2,15336;919,57767;0,01063
64,70000;2,15669;921,61437;0,01065
64,80000;2,16003;922,62020;0,01066
64,90000;2,16333;923,27511;0,01068
65,00000;2,16669;924,16499;0,01070
65,10000;2,17000;926,08267;0,01072
65,20000;2,17330;927,19188;0,01074
65,30000;2,17661;928,18830;0,01075
65,40000;2,17997;930,08718;0,01077
65,50000;2,18333;931,35312;0,01079
65,60000;2,18666;931,53799;0,01081
65,70000;2,19003;933,72818;0,01083
65,80000;2,19336;933,97889;0,01084
65,90000;2,19664;935,81509;0,01086
66,00000;2,19997;936,97757;0,01088
66,10000;2,20336;938,22777;0,01090
66,20000;2,20669;939,63789;0,01092
66,30000;2,21003;939,81642;0,01093
66,40000;2,21333;941,61192;0,01095
66,50000;2,21666;943,21314;0,01097
66,60000;2,21991;943,69566;0,01099
66,70000;2,22327;945,60394;0,01101
66,80000;2,22664;946,63482;0,01102
66,90000;2,23000;947,25834;0,01104
67,00000;2,23336;948,93472;0,01106
67,10000;2,23669;950,10037;0,01108
67,20000;2,24003;950,92133;0,01110
67,30000;2,24336;952,41908;0,01111
67,40000;2,24672;954,31171;0,01113
67,50000;2,25008;955,74679;0,01115
67,60000;2,25339;957,00016;0,01117
67,70000;2,25669;957,37614;0,01118
67,80000;2,26000;958,11877;0,01120
67,90000;2,26327;959,00865;0,01122
68,00000;2,26658;960,50650;0,01124
68,10000;2,26994;962,12961;0,01126
68,20000;2,27333;963,30773;0,01128
68,30000;2,27669;964,87133;0,01130
68,40000;2,28003;965,45098;0,01131
68,50000;2,28336;966,68554;0,01133
68,60000;2,28664;967,56294;0,01135
68,70000;2,29000;969,40855;0,01137
68,80000;2,29336;970,53340;0,01139
68,90000;2,29672;971,60190;0,01141
69,00000;2,30005;972,46049;0,01142
69,10000;2,30336;974,05855;0,01144
69,20000;2,30664;975,54689;0,01146
69,30000;2,30994;976,67808;0,01148
69,40000;2,31330;978,24791;0,01149
69,50000;2,31666;979,41672;0,01151
69,60000;2,31997;980,56979;0,01153
69,70000;2,32333;981,19024;0,01155
69,80000;2,32666;982,30569;0,01157
69,90000;2,32994;983,34290;0,01159
70,00000;2,33325;985,40150;0,01160
70,10000;2,33664;985,46417;0,01162
70,20000;2,34005;986,82102;0,01164
70,30000;2,34342;987,94904;0,01166
70,40000;2,34675;989,39976;0,01168
70,50000;2,35005;990,81611;0,01170
70,60000;2,35327;992,25435;0,01171
70,70000;2,35664;993,73963;0,01173
70,80000;2,36000;994,20957;0,01175
70,90000;2,36333;995,40660;0,01177
71,00000;2,36666;996,80722;0,01179
71,10000;2,37000;998,60579;0,01181
71,20000;2,37330;998,92858;0,01182
71,30000;2,37664;1000,26336;0,01184
71,40000;2,38003;1001,86458;0,01186
71,50000;2,38342;1003,02389;0,01188
71,60000;2,38672;1004,71908;0,01190
71,70000;2,39005;1006,04771;0,01192
71,80000;2,39339;1006,56468;0,01194
71,90000;2,39666;1008,36642;0,01196
72,00000;2,39997;1009,45998;0,01197
72,10000;2,40333;1010,92327;0,01199
72,20000;2,40666;1011,30558;0,01201
72,30000;2,41000;1012,32706;0,01203
72,40000;2,41330;1013,81857;0,01205
72,50000;2,41664;1014,91529;0,01206
72,60000;2,41991;1016,62297;0,01208
72,70000;2,42327;1017,89515;0,01210
72,80000;2,42664;1019,07644;0,01212
72,90000;2,43000;1020,12614;0,01214
73,00000;2,43336;1021,14454;0,01215
73,10000;2,43669;1022,35405;0,01217
73,20000;2,44000;1023,76090;0,01219
73,30000;2,44333;1024,31560;0,01221
73,40000;2,44666;1025,65037;0,01223
73,50000;2,45003;1026,74086;0,01225
73,60000;2,45339;1028,16336;0,01227
73,70000;2,45672;1029,11908;0,01228
73,80000;2,46003;1029,84291;0,01230
73,90000;2,46327;1031,77000;0,01232
74,00000;2,46661;1032,80712;0,01234
74,10000;2,46997;1034,77808;0,01236
74,20000;2,47333;1034,56182;0,01237
74,30000;2,47666;1036,37921;0,01239
74,40000;2,48003;1037,28790;0,01241
74,50000;2,48336;1038,95804;0,01243
74,60000;2,48664;1040,18953;0,01245
74,70000;2,49000;1041,32695;0,01247
74,80000;2,49333;1042,46438;0,01249
74,90000;2,49669;1043,22890;0,01251
75,00000;2,50003;1045,07767;0,01253
75,10000;2,50336;1045,91111;0,01255
75,20000;2,50666;1047,29300;0,01256
75,30000;2,50994;1048,15150;0,01258
75,40000;2,51330;1049,26080;0,01260
75,50000;2,51672;1050,67389;0,01262
75,60000;2,52005;1051,46980;0,01264
75,70000;2,52339;1053,64751;0,01266
75,80000;2,52672;1053,74465;0,01267
75,90000;2,52997;1055,47747;0,01269
76,00000;2,53330;1056,33605;0,01271
76,10000;2,53666;1058,24741;0,01273
76,20000;2,54003;1058,98064;0,01275
76,30000;2,54336;1060,05231;0,01277
76,40000;2,54669;1061,45293;0,01278
76,50000;2,55003;1062,80651;0,01280
76,60000;2,55327;1064,03800;0,01282
76,70000;2,55664;1065,26315;0,01284
76,80000;2,56000;1066,14055;0,01286
76,90000;2,56333;1066,96775;0,01288
77,00000;2,56666;1068,51878;0,01290
77,10000;2,57000;1069,26458;0,01292
77,20000;2,57330;1070,54608;0,01293
77,30000;2,57661;1071,13207;0,01295
77,40000;2,58000;1073,71090;0,01297
77,50000;2,58339;1074,04301;0,01299
77,60000;2,58672;1075,50630;0,01301
77,70000;2,59003;1076,65947;0,01303
77,80000;2,59336;1077,83135;0,01305
77,90000;2,59664;1078,78698;0,01307
78,00000;2,59997;1080,32553;0,01309
78,10000;2,60333;1081,86714;0,01311
78,20000;2,60669;1082,24005;0,01312
78,30000;2,61003;1082,85733;0,01314
78,40000;2,61333;1084,77185;0,01316
78,50000;2,61664;1085,63667;0,01318
78,60000;2,61991;1087,22225;0,01320
78,70000;2,62330;1087,92093;0,01322
78,80000;2,62666;1089,64751;0,01324
78,90000;2,63003;1090,06418;0,01325
79,00000;2,63336;1091,82522;0,01327
79,10000;2,63669;1092,91561;0,01329
79,20000;2,63997;1093,86509;0,01331
79,30000;2,64327;1094,82072;0,01333
79,40000;2,64669;1095,64168;0,01335
79,50000;2,65005;1096,94526;0,01337
79,60000;2,65339;1098,61223;0,01339
79,70000;2,65672;1099,28586;0,01341
79,80000;2,66003;1100,69597;0,01342
79,90000;2,66330;1101,79577;0,01344
80,00000;2,66661;1103,05538;0,01346
80,10000;2,67000;1104,75998;0,01348
80,20000;2,67336;1105,56530;0,01350
80,30000;2,67669;1106,79986;0,01352
80,40000;2,68003;1108,25058;0,01354
80,50000;2,68333;1109,15927;0,01356
80,60000;2,68658;1110,28422;0,01358
80,70000;2,68994;1111,07072;0,01359
80,80000;2,69330;1112,80037;0,01362
80,90000;2,69669;1114,73678;0,01363
81,00000;2,70003;1114,57072;0,01365
81,10000;2,70336;1115,64863;0,01368
81,20000;2,70666;1117,25293;0,01369
81,30000;2,70994;1118,13974;0,01371
81,40000;2,71333;1119,15180;0,01373
81,50000;2,71669;1120,17645;0,01375
81,60000;2,72003;1121,77767;0,01377
81,70000;2,72336;1122,82420;0,01379
81,80000;2,72669;1123,62318;0,01381
81,90000;2,72997;1125,28391;0,01383
82,00000;2,73324;1126,26785;0,01384
82,10000;2,73661;1127,11694;0,01386
82,20000;2,74000;1127,57757;0,01388
82,30000;2,74336;1129,46080;0,01390
82,40000;2,74672;1130,88023;0,01392
82,50000;2,75005;1131,73565;0,01394
82,60000;2,75330;1133,23973;0,01396
82,70000;2,75666;1134,05129;0,01398
82,80000;2,76003;1134,80641;0,01400
82,90000;2,76336;1136,87450;0,01402
83,00000;2,76669;1137,34137;0,01404
83,10000;2,77003;1138,76397;0,01406
83,20000;2,77333;1139,97655;0,01407
83,30000;2,77661;1141,54015;0,01409
83,40000;2,78000;1142,36111;0,01411
83,50000;2,78336;1142,97215;0,01413
83,60000;2,78669;1144,69547;0,01415
83,70000;2,79003;1146,11182;0,01417
83,80000;2,79336;1146,65078;0,01419
83,90000;2,79664;1148,55273;0,01421
84,00000;2,79997;1148,74700;0,01423
84,10000;2,80336;1150,45784;0,01425
84,20000;2,80672;1151,31019;0,01427
84,30000;2,81008;1152,31909;0,01429
84,40000;2,81342;1154,09577;0,01431
84,50000;2,81672;1154,63790;0,01433
84,60000;2,81997;1155,94454;0,01434
84,70000;2,82330;1156,95344;0,01436
84,80000;2,82663;1158,39792;0,01438
84,90000;2,82997;1159,13749;0,01440
85,00000;2,83330;1159,72031;0,01442
85,10000;2,83663;1160,85773;0,01444
85,20000;2,83994;1162,50589;0,01446
85,30000;2,84327;1163,76868;0,01448
85,40000;2,84666;1165,21316;0,01450
85,50000;2,85003;1165,33535;0,01452
85,60000;2,85336;1167,02430;0,01454
85,70000;2,85672;1167,67604;0,01456
85,80000;2,86003;1168,74455;0,01458
85,90000;2,86330;1170,35201;0,01460
86,00000;2,86663;1171,19802;0,01462
86,10000;2,87000;1173,17829;0,01464
86,20000;2,87336;1173,83013;0,01466
86,30000;2,87669;1174,82962;0,01467
86,40000;2,88003;1176,45590;0,01470
86,50000;2,88336;1177,37716;0,01472
86,60000;2,88661;1178,37358;0,01473
86,70000;2,88997;1179,71469;0,01475
86,80000;2,89333;1179,97788;0,01477
86,90000;2,89669;1182,22451;0,01479
87,00000;2,90005;1183,25539;0,01481
87,10000;2,90336;1184,31449;0,01483
87,20000;2,90666;1185,87501;0,01485
87,30000;2,90997;1186,59884;0,01487
87,40000;2,91330;1187,55763;0,01489
87,50000;2,91666;1188,72952;0,01491
87,60000;2,92000;1190,28054;0,01493
87,70000;2,92333;1191,31459;0,01495
87,80000;2,92666;1192,17942;0,01497
87,90000;2,92991;1193,23852;0,01499
88,00000;2,93324;1193,97799;0,01501
88,10000;2,93663;1195,57604;0,01503
88,20000;2,94000;1196,49414;0,01504
88,30000;2,94339;1197,91357;0,01507
88,40000;2,94675;1199,22021;0,01509
88,50000;2,95008;1200,07880;0,01511
88,60000;2,95333;1200,76193;0,01513
88,70000;2,95666;1201,83351;0,01514
88,80000;2,96003;1203,36888;0,01517
88,90000;2,96336;1204,30896;0,01519
89,00000;2,96669;1205,44322;0,01521
89,10000;2,97000;1206,71848;0,01522
89,20000;2,97327;1207,64915;0,01524
89,30000;2,97655;1208,48892;0,01526
89,40000;2,97994;1209,72032;0,01528
89,50000;2,98333;1210,82962;0,01530
89,60000;2,98669;1212,20825;0,01532
89,70000;2,99002;1213,33636;0,01534
89,80000;2,99339;1214,42992;0,01536
89,90000;2,99666;1215,71459;0,01538
90,00000;3,00000;1217,65109;0,01540
90,10000;3,00339;1218,16183;0,01542
90,20000;3,00675;1218,98279;0,01544
90,30000;3,01005;1219,76295;0,01546
90,40000;3,01339;1221,34220;0,01548
90,50000;3,01666;1222,33862;0,01550
90,60000;3,01991;1223,48862;0,01552
90,70000;3,02327;1224,25007;0,01554
90,80000;3,02663;1225,72901;0,01556
90,90000;3,02997;1227,06071;0,01558
91,00000;3,03330;1228,02891;0,01560
91,10000;3,03663;1229,00661;0,01562
91,20000;3,03994;1229,65211;0,01564
91,30000;3,04324;1229,89332;0,01566
91,40000;3,04666;1232,47840;0,01568
91,50000;3,05005;1233,40273;0,01570
91,60000;3,05339;1234,37727;0,01572
91,70000;3,05672;1235,01653;0,01574
91,80000;3,06005;1236,37635;0,01576
91,90000;3,06330;1237,28821;0,01578
92,00000;3,06661;1238,86121;0,01580
92,10000;3,06994;1239,68842;0,01582
92,20000;3,07330;1240,99823;0,01584
92,30000;3,07666;1242,04159;0,01586
92,40000;3,08002;1242,76858;0,01588
92,50000;3,08333;1244,02195;0,01590
92,60000;3,08663;1245,31295;0,01592
92,70000;3,09000;1246,13699;0,01594
92,80000;3,09342;1247,62850;0,01596
92,90000;3,09678;1248,67512;0,01598
93,00000;3,10011;1249,96603;0,01600
93,10000;3,10342;1250,96878;0,01602
93,20000;3,10666;1252,05610;0,01604
93,30000;3,10994;1253,91418;0,01606
93,40000;3,11330;1254,16489;0,01608
93,50000;3,11666;1255,54353;0,01610
93,60000;3,11997;1257,08524;0,01612
93,70000;3,12330;1257,40170;0,01614
93,80000;3,12663;1258,90262;0,01616
93,90000;3,12988;1259,37257;0,01618
94,00000;3,13324;1261,52216;0,01620
94,10000;3,13661;1262,23657;0,01622
94,20000;3,14000;1263,30508;0,01624
94,30000;3,14339;1264,23882;0,01626
94,40000;3,14675;1265,28228;0,01628
94,50000;3,15005;1266,19404;0,01630
94,60000;3,15333;1267,85170;0,01632
94,70000;3,15663;1268,64128;0,01634
94,80000;3,16000;1269,75365;0,01636
94,90000;3,16333;1270,04823;0,01638
95,00000;3,16666;1272,37635;0,01640
95,10000;3,17000;1272,58943;0,01642
95,20000;3,17330;1273,90232;0,01644
95,30000;3,17658;1275,84189;0,01646
95,40000;3,17994;1276,17400;0,01648
95,50000;3,18333;1277,07962;0,01650
95,60000;3,18666;1278,15437;0,01652
95,70000;3,19002;1280,03126;0,01654
95,80000;3,19336;1280,39792;0,01656
95,90000;3,19666;1281,20314;0,01658
96,00000;3,20000;1282,77615;0,01660
96,10000;3,20339;1284,13923;0,01662
96,20000;3,20672;1284,83484;0,01665
96,30000;3,21002;1285,60876;0,01666
96,40000;3,21333;1286,80579;0,01669
96,50000;3,21663;1288,51971;0,01671
96,60000;3,21991;1289,24353;0,01672
96,70000;3,22327;1289,99557;0,01675
96,80000;3,22663;1291,36173;0,01677
96,90000;3,23000;1292,53361;0,01679
97,00000;3,23336;1293,63975;0,01681
97,10000;3,23672;1295,48218;0,01683
97,20000;3,24002;1295,42584;0,01685
97,30000;3,24333;1297,22441;0,01687
97,40000;3,24669;1298,18013;0,01689
97,50000;3,25008;1298,81306;0,01691
97,60000;3,25339;1300,44864;0,01693
97,70000;3,25672;1300,46122;0,01695
97,80000;3,26002;1302,09057;0,01697
97,90000;3,26324;1302,96173;0,01699
98,00000;3,26658;1303,73882;0,01701
98,10000;3,26994;1306,22359;0,01703
98,20000;3,27330;1306,62471;0,01706
98,30000;3,27666;1307,32339;0,01708
98,40000;3,28000;1308,21643;0,01710
98,50000;3,28336;1310,24690;0,01712
98,60000;3,28666;1311,02083;0,01714
98,70000;3,29000;1311,94526;0,01716
98,80000;3,29339;1313,20171;0,01718
98,90000;3,29672;1314,10416;0,01720
99,00000;3,30008;1314,64619;0,01722
99,10000;3,30336;1315,81500;0,01724
99,20000;3,30663;1316,78954;0,01726
99,30000;3,30991;1317,47574;0,01728
99,40000;3,31327;1318,60692;0,01730
99,50000;3,31663;1319,79445;0,01732
99,60000;3,31997;1321,53668;0,01734
99,70000;3,32330;1322,27615;0,01736
99,80000;3,32663;1323,03126;0,01738
99,90000;3,32994;1324,53218;0,01740
100,00000;3,33324;1325,15570;0,01742
100,10000;3,33661;1326,49997;0,01744
100,20000;3,34000;1326,57206;0,01746
100,30000;3,34341;1327,90692;0,01748
100,40000;3,34675;1329,31378;0,01750
100,50000;3,35005;1329,27308;0,01752
100,60000;3,35333;1331,05908;0,01754
100,70000;3,35666;1332,32502;0,01756
100,80000;3,36000;1332,97676;0,01758
100,90000;3,36336;1333,89486;0,01760
101,00000;3,36669;1334,80979;0,01762
101,10000;3,37000;1336,88729;0,01764
101,20000;3,37330;1337,24455;0,01766
101,30000;3,37663;1338,08115;0,01768
101,40000;3,38002;1339,12768;0,01771
101,50000;3,38341;1340,07707;0,01773
101,60000;3,38675;1341,80365;0,01775
101,70000;3,39005;1342,21101;0,01777
101,80000;3,39339;1343,37032;0,01779
101,90000;3,39663;1344,62686;0,01781
102,00000;3,39994;1345,42901;0,01783
102,10000;3,40330;1347,23382;0,01785
102,20000;3,40666;1347,48770;0,01787
102,30000;3,41000;1348,65642;0,01789
102,40000;3,41330;1349,54322;0,01791
102,50000;3,41663;1350,38607;0,01793
102,60000;3,41991;1351,92145;0,01795
102,70000;3,42327;1352,58893;0,01797
102,80000;3,42663;1353,35661;0,01800
102,90000;3,43000;1354,46265;0,01802
103,00000;3,43336;1355,38699;0,01804
103,10000;3,43669;1356,94435;0,01806
103,20000;3,44000;1357,55222;0,01808
103,30000;3,44330;1358,28545;0,01810
103,40000;3,44666;1359,32257;0,01812
103,50000;3,45002;1361,17758;0,01814
103,60000;3,45336;1362,22728;0,01816
103,70000;3,45669;1362,62840;0,01818
103,80000;3,46002;1363,85355;0,01821
103,90000;3,46330;1364,42697;0,01823
104,00000;3,46661;1365,73985;0,01825
104,10000;3,47000;1367,81735;0,01827
104,20000;3,47336;1368,20273;0,01829
104,30000;3,47669;1369,12083;0,01831
104,40000;3,48008;1370,25518;0,01833
104,50000;3,48341;1370,93505;0,01835
104,60000;3,48666;1372,81204;0,01837
104,70000;3,49002;1373,47318;0,01840
104,80000;3,49339;1374,01838;0,01842
104,90000;3,49672;1374,74220;0,01844
105,00000;3,50002;1376,54077;0,01846
105,10000;3,50336;1378,11378;0,01848
105,20000;3,50663;1378,63075;0,01850
105,30001;3,50994;1379,00049;0,01852
105,40001;3,51327;1379,27942;0,01854
105,50001;3,51666;1380,91194;0,01856
105,60001;3,52002;1382,66347;0,01859
105,70001;3,52336;1384,22707;0,01861
105,80001;3,52669;1384,45580;0,01863
105,90001;3,52994;1385,22349;0,01865
106,00001;3,53327;1386,03197;0,01867
106,10001;3,53666;1388,04670;0,01869
106,20001;3,54002;1387,23515;0,01871
106,30001;3,54336;1389,19987;0,01873
106,40001;3,54669;1390,29650;0,01875
106,50001;3,55002;1390,06777;0,01877
106,60001;3,55327;1392,51817;0,01880
106,70001;3,55663;1392,36460;0,01882
106,80001;3,56000;1394,86510;0,01884
106,90001;3,56336;1395,01235;0,01886
107,00001;3,56669;1396,28453;0,01888
107,10001;3,57002;1397,37185;0,01890
107,20001;3,57333;1398,95733;0,01893
107,30001;3,57663;1399,17042;0,01895
107,40001;3,58002;1400,57104;0,01897
107,50001;3,58339;1400,99404;0,01899
107,60001;3,58672;1403,49139;0,01901
107,70001;3,59005;1403,42247;0,01903
107,80001;3,59336;1404,08045;0,01906
107,90001;3,59663;1405,43720;0,01908
108,00001;3,60000;1406,70314;0,01910
108,10001;3,60336;1408,84016;0,01912
108,20001;3,60669;1408,67718;0,01914
108,30001;3,61002;1409,92748;0,01916
108,40001;3,61333;1410,67002;0,01919
108,50001;3,61666;1411,58504;0,01921
108,60001;3,61991;1413,57165;0,01923
108,70001;3,62327;1413,80662;0,01925
108,80001;3,62663;1415,16654;0,01927
108,90001;3,63000;1415,60212;0,01929
109,00001;3,63336;1416,58280;0,01931
109,10001;3,63666;1417,75785;0,01934
109,20001;3,63994;1419,07390;0,01936
109,30001;3,64327;1419,57216;0,01938
109,40001;3,64669;1420,96020;0,01940
109,50001;3,65005;1421,62452;0,01942
109,60001;3,65339;1422,82778;0,01944
109,70001;3,65672;1423,90877;0,01947
109,80001;3,66005;1424,62011;0,01949
109,90001;3,66330;1425,54129;0,01951
110,00001;3,66663;1426,95447;0,01953
110,10001;3,67002;1427,72533;0,01955
110,20001;3,67339;1428,89721;0,01958
110,30001;3,67672;1429,83412;0,01959
110,40001;3,68005;1430,49527;0,01962
110,50001;3,68336;1431,89589;0,01964
110,60001;3,68661;1432,92677;0,01966
110,70001;3,68994;1433,91071;0,01969
110,80001;3,69330;1435,28935;0,01971
110,90001;3,69666;1435,90039;0,01973
111,00001;3,70002;1436,81541;0,01975
111,10001;3,70336;1438,51684;0,01978
111,20001;3,70663;1438,48862;0,01980
111,30001;3,70994;1439,83597;0,01982
111,40001;3,71330;1440,33730;0,01985
111,50001;3,71666;1441,99179;0,01987
111,60001;3,72002;1442,85662;0,01989
111,70001;3,72336;1443,34547;0,01991
111,80001;3,72669;1444,86511;0,01994
111,90001;3,72994;1445,76756;0,01996
112,00001;3,73327;1446,93945;0,01998
112,10001;3,73663;1447,37503;0,02000
112,20001;3,74000;1448,26490;0,02002
112,30001;3,74339;1449,83474;0,02005
112,40001;3,74672;1450,81552;0,02007
112,50001;3,75005;1451,33249;0,02009
112,60001;3,75330;1453,19374;0,02011
112,70001;3,75666;1453,60427;0,02013
112,80001;3,76000;1454,58812;0,02016
112,90001;3,76336;1455,92298;0,02018
113,00001;3,76669;1456,81920;0,02020
113,10001;3,77002;1457,20774;0,02022
113,20001;3,77333;1458,27616;0,02025
113,30001;3,77666;1459,02820;0,02027
113,40001;3,78000;1459,92441;0,02029
113,50001;3,78333;1461,86715;0,02032
113,60001;3,78669;1462,49384;0,02034
113,70001;3,79002;1463,34926;0,02036
113,80001;3,79339;1464,84077;0,02038
113,90001;3,79663;1465,70867;0,02041
114,00001;3,80000;1466,54844;0,02043
114,10001;3,80336;1468,08382;0,02045
114,20001;3,80672;1468,39404;0,02047
114,30001;3,81005;1469,34344;0,02050
114,40001;3,81339;1469,95131;0,02052
114,50001;3,81669;1471,41153;0,02054
114,60001;3,81991;1472,15417;0,02056
114,70001;3,82327;1473,17881;0,02058
114,80001;3,82663;1474,47912;0,02061
114,90001;3,82997;1474,93659;0,02063
115,00001;3,83333;1476,65059;0,02065
115,10001;3,83663;1476,89497;0,02068
115,20001;3,83994;1478,10765;0,02070
115,30001;3,84324;1478,15775;0,02072
115,40001;3,84666;1480,00335;0,02074
115,50001;3,85005;1480,71153;0,02077
115,60001;3,85341;1481,82707;0,02079
115,70001;3,85672;1483,05530;0,02081
115,80001;3,86005;1484,24292;0,02083
115,90001;3,86333;1485,62165;0,02086
116,00001;3,86663;1485,73127;0,02088
116,10001;3,87000;1487,11000;0,02090
116,20001;3,87336;1487,63014;0,02093
116,30001;3,87666;1488,81767;0,02095
116,40001;3,88000;1490,20897;0,02097
116,50001;3,88333;1491,16460;0,02099
116,60001;3,88661;1491,33699;0,02101
116,70001;3,88997;1492,46817;0,02104
116,80001;3,89333;1494,20723;0,02106
116,90001;3,89672;1494,57064;0,02108
117,00001;3,90005;1494,24169;0,02111
117,10001;3,90336;1495,88045;0,02113
117,20001;3,90666;1497,66337;0,02115
117,30001;3,90994;1497,68218;0,02117
117,40001;3,91333;1499,11102;0,02120
117,50001;3,91669;1499,57789;0,02122
117,60001;3,92000;1501,10386;0,02124
117,70001;3,92336;1502,48883;0,02127
117,80001;3,92666;1503,07165;0,02129
117,90001;3,92991;1503,62309;0,02131
118,00001;3,93324;1504,66654;0,02133
118,10001;3,93661;1506,35233;0,02135
118,20001;3,94000;1507,04170;0,02138
118,30001;3,94341;1507,28300;0,02140
118,40001;3,94678;1508,42350;0,02143
118,50001;3,95011;1509,34793;0,02145
118,60001;3,95336;1510,28791;0,02147
118,70001;3,95672;1511,39405;0,02149
118,80001;3,96005;1511,98311;0,02152
118,90001;3,96339;1513,23648;0,02154
119,00001;3,96669;1513,84119;0,02156
119,10001;3,97000;1515,46746;0,02159
119,20001;3,97330;1516,21010;0,02161
119,30001;3,97661;1516,62063;0,02163
119,40001;3,97997;1518,28127;0,02165
119,50001;3,98333;1518,79517;0,02168
119,60001;3,98666;1520,95407;0,02170
119,70001;3,99002;1520,71593;0,02173
119,80001;3,99336;1522,42994;0,02175
119,90001;3,99663;1522,67432;0,02177
120,00001;3,99994;1524,16900;0,02179
120,10001;4,00333;1524,81766;0,02182
120,20001;4,00669;1525,54149;0,02184
120,30001;4,01005;1525,61041;0,02186
120,40001;4,01339;1527,17084;0,02189
120,50001;4,01666;1528,56521;0,02191
120,60001;4,01991;1529,11358;0,02193
120,70001;4,02327;1529,31092;0,02196
120,80001;4,02663;1531,51378;0,02198
120,90001;4,02997;1531,49497;0,02200
121,00001;4,03333;1532,61358;0,02203
121,10001;4,03666;1534,07380;0,02205
121,20001;4,03994;1534,25233;0,02207
121,30001;4,04324;1535,36471;0,02209
121,40001;4,04669;1536,19200;0,02212
121,50001;4,05008;1537,45161;0,02214
121,60001;4,05341;1538,52953;0,02217
121,70001;4,05675;1539,16869;0,02219
121,80001;4,06008;1540,34691;0,02221
121,90001;4,06333;1540,60693;0,02224
122,00001;4,06660;1542,57165;0,02226
122,10001;4,06994;1543,11992;0,02229
122,20001;4,07330;1543,80929;0,02231
122,30001;4,07666;1544,65223;0,02234
122,40001;4,08002;1545,84292;0,02236
122,50001;4,08336;1546,92084;0,02238
122,60001;4,08663;1547,76368;0,02241
122,70001;4,09000;1548,08648;0,02243
122,80001;4,09341;1548,75703;0,02245
122,90001;4,09675;1549,97585;0,02248
123,00001;4,10008;1550,77493;0,02250
123,10001;4,10339;1551,47370;0,02253
123,20001;4,10666;1553,38505;0,02255
123,30001;4,10994;1553,25029;0,02257
123,40001;4,11327;1553,87390;0,02260
123,50001;4,11663;1555,04262;0,02262
123,60001;4,11997;1556,70019;0,02264
123,70001;4,12330;1556,90387;0,02267
123,80001;4,12663;1558,76204;0,02269
123,90001;4,12991;1558,71501;0,02271
124,00001;4,13324;1560,13444;0,02274
124,10001;4,13663;1561,09333;0,02276
124,20001;4,14000;1561,48812;0,02279
124,30001;4,14341;1562,83863;0,02281
124,40001;4,14678;1563,34303;0,02283
124,50001;4,15008;1563,81931;0,02286
124,60001;4,15333;1565,22617;0,02288
124,70001;4,15666;1566,63936;0,02291
124,80001;4,15999;1567,79252;0,02293
124,90001;4,16333;1567,78302;0,02296
125,00001;4,16666;1568,58210;0,02298
125,10001;4,17000;1570,48721;0,02300
125,20001;4,17330;1570,75990;0,02303
125,30001;4,17658;1571,54314;0,02305
125,40001;4,17997;1572,32657;0,02308
125,50001;4,18333;1573,44826;0,02310
125,60001;4,18669;1574,57646;0,02312
125,70001;4,19002;1575,30643;0,02315
125,80001;4,19336;1575,95500;0,02317
125,90001;4,19666;1577,13331;0,02320
126,00001;4,20000;1577,50919;0,02322
126,10001;4,20339;1579,23587;0,02325
126,20001;4,20672;1579,11982;0,02327
126,30001;4,21005;1580,19774;0,02329
126,40001;4,21336;1581,47924;0,02332
126,50001;4,21663;1583,22770;0,02334
126,60001;4,21991;1582,99897;0,02336
126,70001;4,22327;1583,62892;0,02339
126,80001;4,22666;1584,62524;0,02341
126,90001;4,23002;1585,58097;0,02344
127,00001;4,23336;1586,41133;0,02346
127,10001;4,23672;1587,82136;0,02349
127,20001;4,24005;1588,51389;0,02351
127,30001;4,24336;1589,53853;0,02353
127,40001;4,24672;1590,40019;0,02356
127,50001;4,25008;1590,84201;0,02358
127,60001;4,25341;1592,17678;0,02361
127,70001;4,25669;1592,59979;0,02363
127,80001;4,26000;1593,91910;0,02365
127,90001;4,26324;1594,06308;0,02368
128,00001;4,26658;1595,38854;0,02370
128,10001;4,26994;1596,21276;0,02373
128,20001;4,27330;1597,25919;0,02375
128,30001;4,27666;1597,82320;0,02378
128,40001;4,28002;1599,05776;0,02380
128,50001;4,28336;1599,81307;0,02382
128,60001;4,28660;1600,83771;0,02385
128,70001;4,28999;1601,90295;0,02387
128,80001;4,29336;1602,26952;0,02390
128,90001;4,29672;1603,17831;0,02392
129,00001;4,30005;1604,40654;0,02394
129,10001;4,30339;1605,19630;0,02397
129,20001;4,30663;1605,60980;0,02399
129,30001;4,30994;1606,76297;0,02402
129,40001;4,31330;1607,55571;0,02404
129,50001;4,31666;1608,44252;0,02406
129,60001;4,31997;1609,33230;0,02409
129,70001;4,32333;1610,11256;0,02411
129,80001;4,32666;1610,27554;0,02414
129,90001;4,32994;1611,50377;0,02416
130,00001;4,33327;1612,25274;0,02418
130,10001;4,33663;1613,63445;0,02421
130,20001;4,33999;1614,74068;0,02424
130,30001;4,34344;1615,16685;0,02426
130,40001;4,34678;1615,88751;0,02429
130,50001;4,35008;1616,83057;0,02431
130,60001;4,35330;1617,93046;0,02434
130,70001;4,35663;1619,08660;0,02436
130,80001;4,35997;1619,10541;0,02439
130,90001;4,36333;1619,82924;0,02441
131,00001;4,36666;1620,78496;0,02444
131,10001;4,36997;1622,11675;0,02446
131,20001;4,37327;1622,82791;0,02449
131,30001;4,37660;1623,15071;0,02451
131,40001;4,38002;1624,61717;0,02454
131,50001;4,38341;1625,07780;0,02456
131,60001;4,38672;1626,46286;0,02459
131,70001;4,39005;1627,34948;0,02461
131,80001;4,39336;1628,02003;0,02463
131,90001;4,39663;1628,86605;0,02466
132,00001;4,39994;1629,65581;0,02468
132,10001;4,40330;1630,43290;0,02471
132,20001;4,40666;1631,34467;0,02473
132,30001;4,40999;1632,69509;0,02476
132,40001;4,41330;1632,78915;0,02478
132,50001;4,41663;1633,97044;0,02481
132,60001;4,41991;1634,14907;0,02483
132,70001;4,42327;1635,49948;0,02486
132,80001;4,42663;1635,91318;0,02488
132,90001;4,43002;1636,58056;0,02491
133,00001;4,43336;1637,40478;0,02493
133,10001;4,43669;1638,75204;0,02496
133,20001;4,43999;1639,18454;0,02498
133,30001;4,44333;1639,91451;0,02501
133,40001;4,44669;1640,66982;0,02503
133,50001;4,45005;1641,35601;0,02506
133,60001;4,45339;1642,31155;0,02508
133,70001;4,45672;1643,04171;0,02511
133,80001;4,46002;1643,55561;0,02514
133,90001;4,46330;1645,07851;0,02516
134,00001;4,46660;1645,50468;0,02518
134,10001;4,46997;1646,04671;0,02521
134,20001;4,47333;1647,47238;0,02523
134,30001;4,47666;1647,37217;0,02526
134,40001;4,48002;1648,73507;0,02529
134,50001;4,48339;1649,58127;0,02531
134,60001;4,48663;1650,34253;0,02533
134,70001;4,48997;1651,76839;0,02536
134,80001;4,49336;1652,48904;0,02539
134,90001;4,49669;1652,48904;0,02541
135,00001;4,50002;1653,63587;0,02544
135,10001;4,50336;1655,22136;0,02546
135,20001;4,50663;1655,83231;0,02549
135,30001;4,50994;1656,31175;0,02551
135,40001;4,51333;1656,44027;0,02554
135,50001;4,51666;1657,74059;0,02556
135,60001;4,52005;1659,07852;0,02559
135,70001;4,52338;1659,03792;0,02561
135,80001;4,52669;1660,08435;0,02564
135,90001;4,52997;1661,07137;0,02566
136,00001;4,53327;1661,61973;0,02569
136,10001;4,53666;1662,48772;0,02572
136,20001;4,54002;1663,34007;0,02574
136,30001;4,54336;1664,39284;0,02577
136,40001;4,54669;1665,23270;0,02579
136,50001;4,55002;1665,39252;0,02582
136,60001;4,55327;1666,59877;0,02584
136,70001;4,55663;1667,40716;0,02587
136,80001;4,55999;1667,58895;0,02589
136,90001;4,56333;1668,60726;0,02592
137,00001;4,56669;1669,07106;0,02595
137,10001;4,56999;1670,59395;0,02597
137,20001;4,57330;1671,77208;0,02600
137,30001;4,57663;1671,82852;0,02602
137,40001;4,58002;1672,33925;0,02605
137,50001;4,58338;1674,44497;0,02608
137,60001;4,58672;1674,99017;0,02610
137,70001;4,59005;1674,70183;0,02613
137,80001;4,59336;1676,02096;0,02615
137,90001;4,59663;1676,80755;0,02618
138,00001;4,59997;1677,74130;0,02620
138,10001;4,60333;1678,35541;0,02623
138,20001;4,60669;1678,91942;0,02626
138,30001;4,61002;1679,87831;0,02628
138,40001;4,61336;1680,91860;0,02631
138,50001;4,61666;1681,47944;0,02633
138,60001;4,61994;1682,04661;0,02636
138,70001;4,62330;1682,70152;0,02638
138,80001;4,62666;1683,85766;0,02641
138,90001;4,63002;1684,73516;0,02644
139,00001;4,63336;1685,22708;0,02646
139,10001;4,63666;1685,85684;0,02649
139,20001;4,63997;1687,38291;0,02651
139,30001;4,64327;1686,81256;0,02654
139,40001;4,64669;1687,75562;0,02657
139,50001;4,65005;1688,42934;0,02659
139,60001;4,65339;1689,01216;0,02662
139,70001;4,65672;1689,67955;0,02664
139,80001;4,66005;1690,87667;0,02667
139,90001;4,66330;1691,79160;0,02669
140,00001;4,66663;1692,07044;0,02672
140,10001;4,66999;1692,81308;0,02675
140,20001;4,67336;1693,99437;0,02677
140,30001;4,67672;1694,82473;0,02680
140,40001;4,68005;1696,12821;0,02682
140,50001;4,68336;1696,45716;0,02685
140,60001;4,68663;1696,86452;0,02688
140,70001;4,68997;1697,68557;0,02690
140,80001;4,69333;1698,67892;0,02693
140,90001;4,69669;1699,40572;0,02696
141,00001;4,70005;1699,98556;0,02698
141,10001;4,70338;1700,42422;0,02701
141,20001;4,70666;1701,42688;0,02703
141,30001;4,70994;1701,91247;0,02706
141,40001;4,71333;1702,86205;0,02709
141,50001;4,71666;1704,11523;0,02711
141,60001;4,72002;1705,28088;0,02714
141,70001;4,72336;1705,33415;0,02717
141,80001;4,72669;1706,16768;0,02719
141,90001;4,72994;1707,26441;0,02722
142,00001;4,73324;1707,45552;0,02724
142,10001;4,73663;1707,75019;0,02727
142,20001;4,73999;1708,79662;0,02730
142,30001;4,74336;1709,04417;0,02732
142,40001;4,74672;1710,07514;0,02735
142,50001;4,75002;1711,11543;0,02737
142,60001;4,75327;1711,46635;0,02740
142,70001;4,75663;1712,51595;0,02743
142,80001;4,75999;1713,10510;0,02745
142,90001;4,76336;1714,22064;0,02748
143,00001;4,76669;1713,93547;0,02751
143,10001;4,77002;1715,62433;0,02754
143,20001;4,77330;1716,22913;0,02756
143,30001;4,77660;1716,72106;0,02759
143,40001;4,77999;1717,02821;0,02761
143,50001;4,78336;1718,77351;0,02764
143,60001;4,78669;1718,85807;0,02767
143,70001;4,79005;1719,50050;0,02769
143,80001;4,79338;1719,73240;0,02772
143,90001;4,79663;1721,48701;0,02775
144,00001;4,79997;1721,73455;0,02777
144,10001;4,80338;1723,55510;0,02780
144,20001;4,80675;1723,32004;0,02783
144,30001;4,81008;1723,90286;0,02786
144,40001;4,81341;1724,24447;0,02788
144,50001;4,81672;1726,04620;0,02791
144,60001;4,81997;1726,53180;0,02794
144,70001;4,82333;1727,85111;0,02796
144,80001;4,82663;1727,92301;0,02799
144,90001;4,82997;1728,75654;0,02802
145,00001;4,83330;1729,24548;0,02804
145,10001;4,83663;1729,79683;0,02807
145,20001;4,83994;1730,24815;0,02810
145,30001;4,84327;1730,63353;0,02812
145,40001;4,84666;1731,54529;0,02815
145,50001;4,85005;1732,14376;0,02818
145,60001;4,85338;1732,80817;0,02821
145,70001;4,85672;1733,47238;0,02823
145,80001;4,86002;1734,57842;0,02826
145,90001;4,86330;1735,12679;0,02829
146,00001;4,86660;1735,65950;0,02831
146,10001;4,86997;1736,71860;0,02834
146,20001;4,87336;1736,71860;0,02837
146,30001;4,87666;1738,34804;0,02839
146,40001;4,88002;1738,81482;0,02842
146,50001;4,88333;1739,36319;0,02845
146,60001;4,88660;1739,90224;0,02847
146,70001;4,88997;1740,88292;0,02850
146,80001;4,89333;1741,62239;0,02853
146,90001;4,89672;1742,05489;0,02856
147,00001;4,90005;1743,11083;0,02858
147,10001;4,90338;1743,55265;0,02861
147,20001;4,90666;1745,05673;0,02864
147,30001;4,90997;1744,71512;0,02867
147,40001;4,91333;1745,64887;0,02870
147,50001;4,91666;1746,14079;0,02872
147,60001;4,92002;1747,12464;0,02875
147,70001;4,92333;1747,63855;0,02878
147,80001;4,92666;1747,99897;0,02880
147,90001;4,92991;1749,21155;0,02883
148,00001;4,93327;1749,76941;0,02886
148,10001;4,93666;1750,67168;0,02888
148,20001;4,94002;1751,73711;0,02891
148,30001;4,94341;1751,26716;0,02894
148,40001;4,94677;1752,49539;0,02897
148,50001;4,95008;1752,82434;0,02900
148,60001;4,95336;1754,26267;0,02902
148,70001;4,95669;1754,67320;0,02905
148,80001;4,96005;1755,38138;0,02908
148,90001;4,96336;1755,40317;0,02911
149,00001;4,96669;1756,34325;0,02913
149,10001;4,96999;1757,37422;0,02916
149,20001;4,97327;1758,49274;0,02919
149,30001;4,97655;1758,25786;0,02921
149,40001;4,97994;1758,87812;0,02924
149,50001;4,98333;1759,88711;0,02927
149,60001;4,98669;1760,65490;0,02930
149,70001;4,99002;1761,59497;0,02933
149,80001;4,99336;1761,62943;0,02935
149,90001;4,99666;1762,47228;0,02938
150,00001;5,00002;1763,47494;0,02941
150,10001;5,00338;1763,78824;0,02944
150,20001;5,00672;1764,73465;0,02947
150,30001;5,01005;1764,91626;0,02949
150,40001;5,01336;1765,42401;0,02952
150,50001;5,01666;1766,11952;0,02955
150,60001;5,01991;1767,71451;0,02958
150,70001;5,02324;1767,77095;0,02960
150,80001;5,02663;1768,60746;0,02963
150,90001;5,02999;1768,81738;0,02966
151,00001;5,03333;1770,31830;0,02969
151,10001;5,03663;1770,74131;0,02972
151,20001;5,03994;1771,74713;0,02974
151,30001;5,04327;1771,88814;0,02977
151,40001;5,04666;1771,74099;0,02980
151,50001;5,05005;1773,18230;0,02983
151,60001;5,05341;1773,95307;0,02985
151,70001;5,05675;1774,05644;0,02988
151,80001;5,06008;1774,71135;0,02991
151,90001;5,06330;1775,89580;0,02994
152,00001;5,06660;1775,41021;0,02996
152,10001;5,06997;1777,10224;0,02999
152,20001;5,07333;1777,78844;0,03002
152,30001;5,07666;1778,08609;0,03005
152,40001;5,08002;1778,89131;0,03008
152,50001;5,08336;1779,47115;0,03011
152,60001;5,08663;1780,26389;0,03014
152,70001;5,08999;1781,19447;0,03016
152,80001;5,09341;1781,36677;0,03020
152,90001;5,09675;1781,80542;0,03022
153,00001;5,10008;1782,37259;0,03025
153,10001;5,10338;1783,61032;0,03028
153,20001;5,10666;1785,17383;0,03031
153,30001;5,10997;1784,36544;0,03033
153,40001;5,11330;1785,04232;0,03036
153,50001;5,11663;1785,88834;0,03039
153,60001;5,11997;1786,95675;0,03042
153,70001;5,12330;1787,22944;0,03045
153,80001;5,12660;1787,95960;0,03048
153,90001;5,12988;1788,31052;0,03050
154,00001;5,13324;1789,28506;0,03053
154,10001;5,13660;1790,16553;0,03056
154,20001;5,13999;1790,70756;0,03059
154,30001;5,14341;1791,50663;0,03062
154,40001;5,14677;1792,13323;0,03065
154,50001;5,15005;1791,87320;0,03068
154,60001;5,15333;1792,69407;0,03070
154,70001;5,15663;1793,67810;0,03073
154,80001;5,15999;1794,21697;0,03076
154,90001;5,16333;1794,57739;0,03079
155,00001;5,16666;1795,29171;0,03082
155,10001;5,16999;1795,74303;0,03085
155,20001;5,17327;1796,76767;0,03087
155,30001;5,17658;1797,12791;0,03090
155,40001;5,17997;1797,52894;0,03093
155,50001;5,18333;1798,17453;0,03096
155,60001;5,18669;1799,61268;0,03099
155,70001;5,19005;1800,02954;0,03102
155,80001;5,19338;1800,17054;0,03105
155,90001;5,19669;1801,54294;0,03108
156,00001;5,20002;1801,28291;0,03111
156,10001;5,20338;1802,36381;0,03114
156,20001;5,20672;1802,68344;0,03116
156,30001;5,21002;1803,22863;0,03119
156,40001;5,21333;1804,55111;0,03122
156,50001;5,21660;1804,19069;0,03125
156,60001;5,21991;1805,57258;0,03128
156,70001;5,22327;1806,28374;0,03131
156,80001;5,22663;1806,68496;0,03134
156,90001;5,22999;1807,47136;0,03137
157,00001;5,23336;1808,32986;0,03140
157,10001;5,23672;1808,59938;0,03143
157,20001;5,24002;1809,47371;0,03145
157,30001;5,24333;1809,17904;0,03148
157,40001;5,24669;1810,44191;0,03151
157,50001;5,25008;1810,91186;0,03154
157,60001;5,25338;1811,46339;0,03157
157,70001;5,25669;1813,01124;0,03160
157,80001;5,25999;1813,18987;0,03163
157,90001;5,26324;1812,90787;0,03165
158,00001;5,26655;1813,43425;0,03169
158,10001;5,26994;1814,69712;0,03171
158,20001;5,27333;1815,35501;0,03175
158,30001;5,27666;1815,52432;0,03177
158,40001;5,28002;1816,11329;0,03180
158,50001;5,28336;1816,61155;0,03183
158,60001;5,28666;1817,85561;0,03186
158,70001;5,28999;1818,36318;0,03189
158,80001;5,29338;1818,81431;0,03192
158,90001;5,29675;1819,34070;0,03195
159,00001;5,30008;1819,75123;0,03198
159,10001;5,30338;1820,14927;0,03201
159,20001;5,30663;1821,70030;0,03204
159,30001;5,30994;1821,34937;0,03207
159,40001;5,31333;1822,52117;0,03210
159,50001;5,31666;1822,82515;0,03213
159,60001;5,31999;1824,26646;0,03216
159,70001;5,32333;1824,69897;0,03219
159,80001;5,32663;1824,49520;0,03222
159,90001;5,32991;1824,64886;0,03224
160,00001;5,33324;1825,32556;0,03227
160,10001;5,33660;1826,52567;0,03230
160,20001;5,33999;1826,83282;0,03233
160,30001;5,34338;1827,58793;0,03236
160,40001;5,34675;1828,54999;0,03239
160,50001;5,35005;1828,38067;0,03242
160,60001;5,35330;1829,31144;0,03245
160,70001;5,35663;1830,11666;0,03248
160,80001;5,35999;1831,35439;0,03251
160,90001;5,36333;1831,61441;0,03254
161,00001;5,36669;1831,70848;0,03257
161,10001;5,36999;1832,87095;0,03260
161,20001;5,37330;1832,75491;0,03263
161,30001;5,37663;1833,45694;0,03266
161,40001;5,38005;1833,44427;0,03269
161,50001;5,38344;1834,84498;0,03272
161,60001;5,38675;1835,70348;0,03275
161,70001;5,39005;1835,57812;0,03278
161,80001;5,39338;1836,68435;0,03281
161,90001;5,39666;1836,77524;0,03284
162,00001;5,39994;1837,43313;0,03287
162,10001;5,40330;1838,31062;0,03290
162,20001;5,40666;1838,00347;0,03293
162,30001;5,40999;1838,57065;0,03296
162,40001;5,41333;1839,64223;0,03299
162,50001;5,41663;1839,56698;0,03301
162,60001;5,41991;1839,74877;0,03304
162,70001;5,42327;1840,66687;0,03307
162,80001;5,42666;1841,24969;0,03310
162,90001;5,43002;1841,70082;0,03313
163,00001;5,43336;1841,48476;0,03316
163,10001;5,43669;1843,01380;0,03319
163,20001;5,43999;1843,82536;0,03322
163,30001;5,44330;1843,83485;0,03325
163,40001;5,44666;1844,48659;0,03328
163,50001;5,45002;1844,69651;0,03331
163,60001;5,45336;1846,16297;0,03334
163,70001;5,45672;1845,81820;0,03337
163,72201;5,45746;1539,81736;0,02572
163,72801;5,45766;1214,96888;0,01715
163,73001;5,45771;1102,71070;0,01411
