Text Inputs : Specimen label;"1"
Dimension : Length;50,00000;mm
Dimension : Final length;100,00000;mm
Test : Rate 1;2,00000;mm/min
General : Unique Identifier;"{97847415-D2C4-4852-BCCD-975B3EB3A557}"

Time;Extension;Load;Strain 1
(sec);(mm);(N);(mm/mm)
0,00000;0,00000;11,01196;0,00016
0,10000;0,00191;10,66416;0,00016
0,20000;0,00499;10,50748;0,00017
0,30000;0,00849;10,83649;0,00016
0,40000;0,01211;12,60061;0,00017
0,50000;0,01575;15,31729;0,00018
0,60000;0,01926;19,03980;0,00021
0,70000;0,02282;22,74665;0,00024
0,80000;0,02632;26,54121;0,00027
0,90000;0,02980;30,22613;0,00029
1,00000;0,03322;33,67290;0,00032
1,10000;0,03658;37,28260;0,00035
1,20000;0,03991;39,43527;0,00037
1,30000;0,04322;42,64703;0,00040
1,40000;0,04658;46,05619;0,00042
1,50000;0,04997;48,92641;0,00045
1,60000;0,05330;50,94433;0,00047
1,70000;0,05667;53,14087;0,00049
1,80000;0,06000;55,24966;0,00051
1,90000;0,06330;57,57153;0,00053
2,00000;0,06658;58,98784;0,00054
2,10000;0,06994;60,41354;0,00056
2,20000;0,07330;60,79583;0,00056
2,30000;0,07667;62,31867;0,00057
2,40000;0,08000;61,80479;0,00058
2,50000;0,08336;61,67946;0,00058
2,60000;0,08664;62,96416;0,00058
2,70000;0,09000;63,21797;0,00059
2,80000;0,09339;63,20543;0,00059
2,90000;0,09675;63,01743;0,00059
3,00000;0,10009;63,75691;0,00060
3,10000;0,10339;63,85092;0,00060
3,20000;0,10667;62,43461;0,00060
3,30000;0,10994;63,96685;0,00060
3,40000;0,11330;64,16113;0,00061
3,50000;0,11667;63,92925;0,00061
3,60000;0,11997;63,39344;0,00061
3,70000;0,12330;63,11457;0,00061
3,80000;0,12664;64,29900;0,00061
3,90000;0,12989;63,76632;0,00061
4,00000;0,13322;64,21126;0,00061
4,10000;0,13661;64,03580;0,00061
4,20000;0,14000;63,72245;0,00061
4,30000;0,14333;65,03222;0,00062
4,40000;0,14669;63,91358;0,00062
4,50000;0,15006;64,00759;0,00061
4,60000;0,15333;63,89793;0,00062
4,70000;0,15672;63,86659;0,00062
4,80000;0,16006;64,28333;0,00062
4,90000;0,16336;64,73454;0,00062
5,00000;0,16669;64,42120;0,00062
5,10000;0,17000;65,41450;0,00063
5,20000;0,17330;64,94449;0,00063
5,30000;0,17661;65,76858;0,00063
5,40000;0,17997;65,70905;0,00063
5,50000;0,18333;66,05685;0,00063
5,60000;0,18664;66,02552;0,00063
5,70000;0,19000;65,19202;0,00064
5,80000;0,19333;65,21395;0,00064
5,90000;0,19664;66,46420;0,00064
6,00000;0,19997;66,71173;0,00064
6,10000;0,20336;66,28872;0,00064
6,20000;0,20669;66,13205;0,00064
6,30000;0,21003;66,42659;0,00064
6,40000;0,21336;65,94404;0,00065
6,50000;0,21667;66,21352;0,00065
6,60000;0,21991;66,93108;0,00065
6,70000;0,22328;65,92838;0,00065
6,80000;0,22664;66,33572;0,00065
6,90000;0,23003;65,87198;0,00065
7,00000;0,23336;66,74933;0,00065
7,10000;0,23667;66,54880;0,00065
7,20000;0,23997;65,78738;0,00065
7,30000;0,24330;66,43913;0,00065
7,40000;0,24669;66,16025;0,00065
7,50000;0,25009;66,00044;0,00066
7,60000;0,25342;65,89704;0,00066
7,70000;0,25672;65,68084;0,00066
7,80000;0,26003;66,77441;0,00066
7,90000;0,26328;66,94361;0,00066
8,00000;0,26658;67,06581;0,00066
8,10000;0,26994;66,26992;0,00066
8,20000;0,27330;66,38899;0,00066
8,30000;0,27667;66,53627;0,00066
8,40000;0,28000;66,66160;0,00066
8,50000;0,28336;66,48613;0,00066
8,60000;0,28661;66,37960;0,00066
8,70000;0,28997;65,88137;0,00066
8,80000;0,29336;66,10386;0,00067
8,90000;0,29672;65,92525;0,00067
9,00000;0,30006;66,85588;0,00067
9,10000;0,30339;67,52330;0,00067
9,20000;0,30667;66,15712;0,00067
9,30000;0,30994;66,56760;0,00067
9,40000;0,31330;67,02507;0,00067
9,50000;0,31667;67,24442;0,00068
9,60000;0,32000;67,06268;0,00068
9,70000;0,32333;68,06850;0,00068
9,80000;0,32664;66,84960;0,00068
9,90000;0,32991;67,00627;0,00068
10,00000;0,33322;67,21622;0,00068
10,10000;0,33661;66,83394;0,00068
10,20000;0,33994;67,04387;0,00069
10,30000;0,34328;67,15042;0,00069
10,40000;0,34664;66,66473;0,00069
10,50000;0,35006;66,85901;0,00069
10,60000;0,35333;68,02777;0,00069
10,70000;0,35672;67,83350;0,00070
10,80000;0,36009;68,74846;0,00070
10,90000;0,36339;68,59805;0,00070
11,00000;0,36672;69,13388;0,00071
11,10000;0,37003;68,82993;0,00071
11,20000;0,37330;68,64819;0,00071
11,30000;0,37661;68,30666;0,00071
11,40000;0,38000;68,97093;0,00071
11,50000;0,38339;68,90200;0,00071
11,60000;0,38675;68,65133;0,00072
11,70000;0,39011;69,03987;0,00072
11,80000;0,39342;69,29995;0,00072
11,90000;0,39667;70,13971;0,00073
12,00000;0,39997;71,52468;0,00074
12,10000;0,40330;71,66568;0,00074
12,20000;0,40667;72,23596;0,00075
12,30000;0,41000;72,76238;0,00075
12,40000;0,41333;72,86891;0,00076
12,50000;0,41664;73,22612;0,00077
12,60000;0,41991;74,05336;0,00077
12,70000;0,42328;75,32865;0,00078
12,80000;0,42664;75,56679;0,00079
12,90000;0,42997;76,06188;0,00080
13,00000;0,43333;78,55921;0,00080
13,10000;0,43667;78,47148;0,00081
13,20000;0,43997;79,99747;0,00083
13,30000;0,44328;81,68011;0,00084
13,40000;0,44667;84,49079;0,00086
13,50000;0,45006;86,55572;0,00088
13,60000;0,45339;89,46040;0,00090
13,70000;0,45675;92,64397;0,00092
13,80000;0,46006;93,89421;0,00094
13,90000;0,46330;97,78278;0,00097
14,00000;0,46661;100,77207;0,00099
14,10000;0,46997;101,96904;0,00101
14,20000;0,47330;104,53218;0,00103
14,30000;0,47661;106,73811;0,00105
14,40000;0,47994;109,08819;0,00107
14,50000;0,48328;112,65089;0,00109
14,60000;0,48658;114,37740;0,00112
14,70000;0,48997;117,31029;0,00114
14,80000;0,49339;119,32196;0,00116
14,90000;0,49672;122,26424;0,00118
15,00000;0,50008;124,78038;0,00120
15,10000;0,50339;127,38738;0,00123
15,20000;0,50667;129,71553;0,00125
15,30000;0,50994;132,05305;0,00127
15,40000;0,51333;134,13678;0,00129
15,50000;0,51669;137,53342;0,00132
15,60000;0,52003;140,09969;0,00134
15,70000;0,52339;141,88888;0,00136
15,80000;0,52672;144,03214;0,00138
15,90000;0,52997;147,27211;0,00141
16,00000;0,53330;149,16783;0,00143
16,10000;0,53667;152,66474;0,00145
16,20000;0,54000;154,15625;0,00147
16,30000;0,54336;156,90739;0,00150
16,40000;0,54669;158,91906;0,00152
16,50000;0,55003;161,35685;0,00154
16,60000;0,55330;164,60622;0,00157
16,70000;0,55664;167,08790;0,00159
16,80000;0,56000;168,79875;0,00161
16,90000;0,56336;171,11747;0,00164
17,00000;0,56669;173,83730;0,00166
17,10000;0,57000;176,83285;0,00168
17,20000;0,57330;177,88567;0,00170
17,30000;0,57658;180,52089;0,00172
17,40000;0,57997;182,98062;0,00175
17,50000;0,58336;185,75058;0,00177
17,60000;0,58672;187,62123;0,00179
17,70000;0,59006;190,21571;0,00182
17,80000;0,59339;192,24930;0,00184
17,90000;0,59664;194,24529;0,00186
18,00000;0,59997;197,70772;0,00188
18,10000;0,60333;200,12672;0,00191
18,20000;0,60669;201,19208;0,00193
18,30000;0,61003;203,62362;0,00196
18,40000;0,61336;206,39359;0,00198
18,50000;0,61667;208,84078;0,00200
18,60000;0,61991;211,30992;0,00202
18,70000;0,62328;213,72580;0,00205
18,80000;0,62664;215,62779;0,00207
18,90000;0,63000;217,13809;0,00209
19,00000;0,63333;221,20527;0,00211
19,10000;0,63667;222,22991;0,00214
19,20000;0,63994;224,50164;0,00216
19,30000;0,64325;227,07104;0,00218
19,40000;0,64667;229,49006;0,00221
19,50000;0,65006;232,01874;0,00223
19,60000;0,65342;234,35941;0,00225
19,70000;0,65675;236,33658;0,00227
19,80000;0,66008;237,99103;0,00229
19,90000;0,66333;240,38497;0,00232
20,00000;0,66664;242,67863;0,00234
20,10000;0,67000;245,19479;0,00236
20,20000;0,67336;246,11289;0,00238
20,30000;0,67669;248,85463;0,00240
20,40000;0,68003;251,16082;0,00243
20,50000;0,68336;252,54267;0,00245
20,60000;0,68661;255,88290;0,00247
20,70000;0,68997;258,33950;0,00249
20,80000;0,69330;259,03513;0,00251
20,90000;0,69667;261,44159;0,00254
21,00000;0,70003;263,93267;0,00256
21,10000;0,70336;266,09160;0,00258
21,20000;0,70667;268,04060;0,00260
21,30000;0,70994;270,50034;0,00262
21,40000;0,71330;271,30875;0,00264
21,50000;0,71667;274,63019;0,00266
21,60000;0,72000;276,83924;0,00269
21,70000;0,72336;277,42207;0,00271
21,80000;0,72669;279,94448;0,00273
21,90000;0,72997;281,66785;0,00275
22,00000;0,73328;284,37828;0,00277
22,10000;0,73664;286,35859;0,00279
22,20000;0,74000;288,51440;0,00282
22,30000;0,74333;290,09050;0,00284
22,40000;0,74669;291,73868;0,00286
22,50000;0,75003;294,34883;0,00288
22,60000;0,75330;297,07178;0,00290
22,70000;0,75667;298,89231;0,00292
22,80000;0,76003;299,86992;0,00294
22,90000;0,76336;301,92859;0,00297
23,00000;0,76669;303,97784;0,00298
23,10000;0,77000;306,87000;0,00301
23,20000;0,77330;308,10458;0,00303
23,30000;0,77658;309,94702;0,00305
23,40000;0,77997;312,49763;0,00307
23,50000;0,78336;314,44663;0,00309
23,60000;0,78672;315,76580;0,00311
23,70000;0,79006;318,18794;0,00313
23,80000;0,79342;320,14006;0,00316
23,90000;0,79667;322,58099;0,00318
24,00000;0,79997;323,97225;0,00320
24,10000;0,80339;325,90870;0,00322
24,20000;0,80675;327,77309;0,00324
24,30000;0,81006;330,05422;0,00326
24,40000;0,81339;331,81834;0,00328
24,50000;0,81669;333,67646;0,00331
24,60000;0,81994;336,05159;0,00333
24,70000;0,82330;338,53953;0,00335
24,80000;0,82664;339,03774;0,00337
24,90000;0,82997;340,79561;0,00339
25,00000;0,83330;343,64075;0,00341
25,10000;0,83664;345,51767;0,00343
25,20000;0,83994;347,41967;0,00345
25,30000;0,84322;349,26524;0,00347
25,40000;0,84664;350,96356;0,00349
25,50000;0,85003;353,70532;0,00351
25,60000;0,85339;355,66997;0,00354
25,70000;0,85675;358,20177;0,00356
25,80000;0,86006;359,45829;0,00358
25,90000;0,86330;360,84640;0,00360
26,00000;0,86664;362,59484;0,00362
26,10000;0,87000;365,17051;0,00364
26,20000;0,87333;366,83124;0,00366
26,30000;0,87667;369,41005;0,00369
26,40000;0,88003;369,97406;0,00371
26,50000;0,88333;372,62493;0,00373
26,60000;0,88661;374,88414;0,00375
26,70000;0,89000;376,41639;0,00377
26,80000;0,89336;377,98937;0,00379
26,90000;0,89672;379,98222;0,00381
27,00000;0,90006;382,15681;0,00383
27,10000;0,90336;384,04001;0,00385
27,20000;0,90664;385,50331;0,00388
27,30000;0,90994;387,87220;0,00390
27,40000;0,91330;389,78984;0,00392
27,50000;0,91667;391,86417;0,00394
27,60000;0,92000;393,35568;0,00396
27,70000;0,92333;395,69633;0,00398
27,80000;0,92667;397,24112;0,00400
27,90000;0,92991;399,03657;0,00402
28,00000;0,93325;401,05134;0,00404
28,10000;0,93661;402,90635;0,00406
28,20000;0,94000;404,50129;0,00408
28,30000;0,94333;405,88626;0,00410
28,40000;0,94669;407,84464;0,00413
28,50000;0,95003;409,98161;0,00414
28,60000;0,95333;412,46018;0,00416
28,70000;0,95672;414,48749;0,00419
28,80000;0,96008;415,60926;0,00421
28,90000;0,96342;417,42353;0,00423
29,00000;0,96672;419,27849;0,00425
29,10000;0,97003;422,28345;0,00427
29,20000;0,97330;422,97281;0,00429
29,30000;0,97655;424,29199;0,00431
29,40000;0,97994;427,23115;0,00433
29,50000;0,98333;428,66310;0,00435
29,60000;0,98667;430,34265;0,00438
29,70000;0,99003;432,72404;0,00440
29,80000;0,99336;433,76433;0,00442
29,90000;0,99667;435,46576;0,00444
30,00000;1,00000;436,99802;0,00446
30,10000;1,00339;439,48907;0,00448
30,20000;1,00675;441,52895;0,00450
30,30000;1,01006;443,10195;0,00452
30,40000;1,01339;444,37097;0,00454
30,50000;1,01667;445,98468;0,00456
30,60000;1,01991;448,46009;0,00458
30,70000;1,02328;450,61274;0,00460
30,80000;1,02664;451,86924;0,00463
30,90000;1,03000;453,17588;0,00465
31,00000;1,03333;455,35676;0,00467
31,10000;1,03664;458,17057;0,00468
31,20000;1,03994;459,10119;0,00471
31,30000;1,04322;460,63345;0,00472
31,40000;1,04658;462,56050;0,00475
31,50000;1,04994;464,77271;0,00477
31,60000;1,05333;466,54935;0,00479
31,70000;1,05672;467,19485;0,00481
31,80000;1,06008;469,93033;0,00483
31,90000;1,06333;471,60983;0,00485
32,00000;1,06664;473,20477;0,00487
32,10000;1,06997;475,54858;0,00489
32,20000;1,07333;477,27195;0,00491
32,30000;1,07664;478,51591;0,00493
32,40000;1,08003;481,00385;0,00495
32,50000;1,08336;481,84674;0,00497
32,60000;1,08664;484,08089;0,00499
32,70000;1,09000;485,83872;0,00501
32,80000;1,09339;486,82890;0,00503
32,90000;1,09678;489,78371;0,00506
33,00000;1,10011;490,56080;0,00508
33,10000;1,10345;492,13376;0,00510
33,20000;1,10672;493,64720;0,00512
33,30000;1,10997;495,26407;0,00514
33,40000;1,11330;497,46688;0,00516
33,50000;1,11667;499,18713;0,00518
33,60000;1,11997;500,43110;0,00520
33,70000;1,12330;501,78473;0,00522
33,80000;1,12661;503,63657;0,00523
33,90000;1,12988;505,11868;0,00525
34,00000;1,13322;507,90119;0,00528
34,10000;1,13661;509,12322;0,00530
34,20000;1,13997;510,32333;0,00532
34,30000;1,14333;512,12502;0,00534
34,40000;1,14667;514,13043;0,00536
34,50000;1,15003;516,06060;0,00538
34,60000;1,15333;517,53018;0,00540
34,70000;1,15669;519,39143;0,00542
34,80000;1,16006;520,84848;0,00544
34,90000;1,16339;522,48412;0,00546
35,00000;1,16669;523,42732;0,00548
35,10000;1,17003;525,49536;0,00550
35,20000;1,17330;527,43810;0,00552
35,30000;1,17658;528,33427;0,00554
35,40000;1,17997;530,30206;0,00556
35,50000;1,18333;532,81193;0,00558
35,60000;1,18667;534,47261;0,00560
35,70000;1,19003;535,98606;0,00562
35,80000;1,19336;537,20498;0,00564
35,90000;1,19667;539,07563;0,00566
36,00000;1,20000;540,93376;0,00568
36,10000;1,20339;542,44408;0,00570
36,20000;1,20675;543,63161;0,00572
36,30000;1,21006;545,85324;0,00574
36,40000;1,21336;547,20999;0,00576
36,50000;1,21667;548,47589;0,00578
36,60000;1,21994;550,74138;0,00579
36,70000;1,22330;552,37701;0,00581
36,80000;1,22664;553,50508;0,00583
36,90000;1,23000;555,20022;0,00586
37,00000;1,23333;556,70114;0,00587
37,10000;1,23667;559,12016;0,00589
37,20000;1,23994;559,97558;0,00591
37,30000;1,24327;561,83059;0,00593
37,40000;1,24669;564,53785;0,00596
37,50000;1,25011;566,25181;0,00598
37,60000;1,25342;567,19813;0,00600
37,70000;1,25675;569,62967;0,00602
37,80000;1,26003;571,18386;0,00604
37,90000;1,26327;572,46541;0,00606
38,00000;1,26658;574,09480;0,00608
38,10000;1,26994;576,20672;0,00610
38,20000;1,27330;578,19020;0,00613
38,30000;1,27664;580,04204;0,00615
38,40000;1,28000;582,15708;0,00617
38,50000;1,28333;583,19424;0,00619
38,60000;1,28661;585,19654;0,00621
38,70000;1,29000;586,93243;0,00624
38,80000;1,29339;588,82814;0,00626
38,90000;1,29675;590,61735;0,00628
39,00000;1,30011;592,23105;0,00630
39,10000;1,30339;593,96699;0,00632
39,20000;1,30667;595,23913;0,00634
39,30000;1,30994;596,87481;0,00636
39,40000;1,31330;599,68233;0,00638
39,50000;1,31667;600,97333;0,00641
39,60000;1,32000;603,14480;0,00643
39,70000;1,32333;604,13494;0,00645
39,80000;1,32664;606,27507;0,00647
39,90000;1,32991;608,01725;0,00649
40,00000;1,33322;609,49624;0,00651
40,10000;1,33658;610,53652;0,00653
40,20000;1,33991;612,81142;0,00655
40,30000;1,34327;614,40007;0,00658
40,40000;1,34664;616,25815;0,00660
40,50000;1,35003;617,59925;0,00662
40,60000;1,35336;620,82983;0,00664
40,70000;1,35672;621,50354;0,00666
40,80000;1,36008;623,32093;0,00668
40,90000;1,36339;624,74036;0,00670
41,00000;1,36672;626,83034;0,00672
41,10000;1,37003;628,50672;0,00675
41,20000;1,37330;629,91362;0,00677
41,30000;1,37661;631,41766;0,00679
41,40000;1,38000;633,71137;0,00681
41,50000;1,38339;634,92712;0,00683
41,60000;1,38675;636,92937;0,00685
41,70000;1,39011;638,61827;0,00687
41,80000;1,39342;640,94015;0,00689
41,90000;1,39667;642,04624;0,00691
42,00000;1,39997;642,71679;0,00693
42,10000;1,40333;645,41469;0,00695
42,20000;1,40669;645,72175;0,00697
42,30000;1,41000;648,30370;0,00699
42,40000;1,41330;649,75135;0,00701
42,50000;1,41661;650,81674;0,00703
42,60000;1,41988;653,45508;0,00706
42,70000;1,42325;654,51418;0,00708
42,80000;1,42664;656,06833;0,00709
42,90000;1,42997;657,76352;0,00712
43,00000;1,43333;660,02272;0,00714
43,10000;1,43667;660,84056;0,00716
43,20000;1,43997;662,12211;0,00718
43,30000;1,44325;664,08678;0,00720
43,40000;1,44667;665,74751;0,00722
43,50000;1,45003;667,48653;0,00724
43,60000;1,45339;668,57073;0,00726
43,70000;1,45672;669,70186;0,00728
43,80000;1,46006;671,54118;0,00730
43,90000;1,46330;672,67865;0,00732
44,00000;1,46661;674,10748;0,00734
44,10000;1,47000;677,25969;0,00736
44,20000;1,47333;677,92400;0,00738
44,30000;1,47664;678,95176;0,00740
44,40000;1,47997;681,56188;0,00742
44,50000;1,48330;682,62098;0,00744
44,60000;1,48661;683,63934;0,00746
44,70000;1,49000;685,63223;0,00748
44,80000;1,49339;686,39675;0,00750
44,90000;1,49672;688,46168;0,00752
45,00000;1,50008;689,84982;0,00754
45,10000;1,50339;691,58259;0,00756
45,20000;1,50666;692,17794;0,00758
45,30000;1,50994;693,72272;0,00760
45,40000;1,51330;696,00386;0,00762
45,50000;1,51666;697,34808;0,00763
45,60000;1,52003;698,90539;0,00765
45,70000;1,52336;699,88929;0,00767
45,80000;1,52669;701,49675;0,00769
45,90000;1,52997;703,00391;0,00771
46,00000;1,53330;704,47978;0,00773
46,10000;1,53664;705,69552;0,00775
46,20000;1,54000;706,75774;0,00777
46,30000;1,54333;708,60023;0,00779
46,40000;1,54669;710,27661;0,00781
46,50000;1,55000;710,38627;0,00783
46,60000;1,55327;712,80841;0,00785
46,70000;1,55664;714,31873;0,00787
46,80000;1,56003;715,87292;0,00789
46,90000;1,56339;716,74399;0,00791
47,00000;1,56669;719,07840;0,00793
47,10000;1,57000;720,40386;0,00795
47,20000;1,57330;721,91413;0,00797
47,30000;1,57661;722,89803;0,00799
47,40000;1,57997;724,91285;0,00801
47,50000;1,58336;725,82779;0,00803
47,60000;1,58672;727,79870;0,00805
47,70000;1,59006;729,29021;0,00807
47,80000;1,59336;730,55299;0,00809
47,90000;1,59666;732,12283;0,00811
48,00000;1,59997;733,30100;0,00813
48,10000;1,60336;734,89905;0,00815
48,20000;1,60669;736,53469;0,00817
48,30000;1,61003;737,22722;0,00819
48,40000;1,61333;739,47385;0,00821
48,50000;1,61664;740,45463;0,00823
48,60000;1,61991;742,04016;0,00825
48,70000;1,62327;742,86736;0,00827
48,80000;1,62664;744,60953;0,00829
48,90000;1,62997;745,70626;0,00831
49,00000;1,63333;747,99052;0,00833
49,10000;1,63664;748,79578;0,00835
49,20000;1,63991;750,43458;0,00836
49,30000;1,64322;751,77257;0,00838
49,40000;1,64664;753,83750;0,00840
49,50000;1,65006;754,57073;0,00842
49,60000;1,65342;756,16874;0,00844
49,70000;1,65675;757,77308;0,00846
49,80000;1,66008;758,99512;0,00848
49,90000;1,66333;760,64956;0,00850
50,00000;1,66666;761,47364;0,00852
50,10000;1,67003;763,49783;0,00854
50,20000;1,67336;764,58198;0,00856
50,30000;1,67672;765,77896;0,00858
50,40000;1,68006;767,86270;0,00860
50,50000;1,68336;768,79021;0,00862
50,60000;1,68661;770,35064;0,00864
50,70000;1,68997;771,82963;0,00866
50,80000;1,69333;773,75979;0,00868
50,90000;1,69669;774,54001;0,00870
51,00000;1,70003;776,50468;0,00872
51,10000;1,70336;777,81132;0,00874
51,20000;1,70664;778,41296;0,00876
51,30000;1,70994;780,45279;0,00878
51,40000;1,71330;782,19492;0,00880
51,50000;1,71666;782,92508;0,00882
51,60000;1,72000;784,65156;0,00884
51,70000;1,72336;785,93623;0,00886
51,80000;1,72666;787,07058;0,00887
51,90000;1,72994;788,13909;0,00889
52,00000;1,73325;789,79665;0,00891
52,10000;1,73661;791,50433;0,00893
52,20000;1,73997;792,80157;0,00895
52,30000;1,74333;794,18663;0,00897
52,40000;1,74669;795,79717;0,00899
52,50000;1,75003;796,48653;0,00901
52,60000;1,75330;798,25381;0,00903
52,70000;1,75666;799,35044;0,00905
52,80000;1,76003;800,66966;0,00907
52,90000;1,76336;802,03582;0,00909
53,00000;1,76669;803,75606;0,00911
53,10000;1,77000;805,73643;0,00913
53,20000;1,77330;805,76148;0,00915
53,30000;1,77661;807,17150;0,00916
53,40000;1,77997;809,91322;0,00918
53,50000;1,78336;810,16077;0,00920
53,60000;1,78672;811,85913;0,00922
53,70000;1,79005;813,57313;0,00924
53,80000;1,79342;815,17426;0,00926
53,90000;1,79666;815,48765;0,00928
54,00000;1,80000;817,02610;0,00930
54,10000;1,80336;818,86854;0,00932
54,20000;1,80675;819,56731;0,00933
54,30000;1,81005;821,34083;0,00935
54,40000;1,81339;822,45637;0,00937
54,50000;1,81669;822,84492;0,00939
54,60000;1,81994;824,93490;0,00941
54,70000;1,82330;825,68694;0,00942
54,80000;1,82664;826,74911;0,00944
54,90000;1,82997;827,41026;0,00946
55,00000;1,83330;828,87048;0,00948
55,10000;1,83661;830,39645;0,00949
55,20000;1,83991;831,31455;0,00951
55,30000;1,84322;832,86557;0,00953
55,40000;1,84661;834,94931;0,00955
55,50000;1,85000;835,41619;0,00957
55,60000;1,85339;836,20586;0,00958
55,70000;1,85672;837,63469;0,00960
55,80000;1,86005;839,07917;0,00962
55,90000;1,86333;840,82447;0,00964
56,00000;1,86664;841,94941;0,00966
56,10000;1,87000;843,26547;0,00967
56,20000;1,87336;843,35627;0,00969
56,30000;1,87666;844,83838;0,00971
56,40000;1,88000;846,81557;0,00973
56,50000;1,88333;846,93152;0,00975
56,60000;1,88661;848,87426;0,00976
56,70000;1,88997;849,86752;0,00978
56,80000;1,89333;851,25249;0,00980
56,90000;1,89669;852,58428;0,00982
57,00000;1,90003;853,44911;0,00984
57,10000;1,90336;855,29462;0,00986
57,20000;1,90664;855,94645;0,00988
57,30000;1,90994;857,76066;0,00989
57,40000;1,91330;858,57846;0,00991
57,50000;1,91666;860,15770;0,00993
57,60000;1,92000;861,18551;0,00995
57,70000;1,92333;862,12549;0,00996
57,80000;1,92666;863,31936;0,00998
57,90000;1,92991;863,99931;0,01000
58,00000;1,93325;865,49707;0,01002
58,10000;1,93664;867,35832;0,01004
58,20000;1,94000;868,79656;0,01006
58,30000;1,94333;870,01231;0,01007
58,40000;1,94669;870,62968;0,01009
58,50000;1,95005;871,74829;0,01011
58,60000;1,95336;873,20535;0,01013
58,70000;1,95675;874,31772;0,01015
58,80000;1,96011;875,35167;0,01017
58,90000;1,96342;876,84011;0,01018
59,00000;1,96672;877,34768;0,01020
59,10000;1,97000;879,93592;0,01022
59,20000;1,97327;879,91711;0,01024
59,30000;1,97655;881,13919;0,01026
59,40000;1,97994;882,79042;0,01027
59,50000;1,98333;883,87467;0,01029
59,60000;1,98666;885,24707;0,01031
59,70000;1,99003;885,78602;0,01033
59,80000;1,99336;887,39349;0,01035
59,90000;1,99666;889,06670;0,01036
60,00000;1,99997;889,85637;0,01038
60,10000;2,00336;892,27539;0,01040
60,20000;2,00669;891,88367;0,01042
60,30000;2,01005;893,17150;0,01043
60,40000;2,01339;894,96691;0,01045
60,50000;2,01669;894,74758;0,01047
60,60000;2,01991;896,91281;0,01048
60,70000;2,02327;897,80269;0,01050
60,80000;2,02664;898,81793;0,01052
60,90000;2,03000;899,66087;0,01054
61,00000;2,03333;900,78572;0,01056
61,10000;2,03664;903,69983;0,01057
61,20000;2,03994;903,93173;0,01059
61,30000;2,04322;905,10668;0,01061
61,40000;2,04658;906,28173;0,01063
61,50000;2,04997;907,18735;0,01065
61,60000;2,05336;909,06424;0,01066
61,70000;2,05675;909,83193;0,01068
61,80000;2,06008;910,54952;0,01070
61,90000;2,06336;911,80913;0,01072
62,00000;2,06664;913,24113;0,01073
62,10000;2,07000;914,58224;0,01075
62,20000;2,07333;915,61619;0,01077
62,30000;2,07666;916,65024;0,01079
62,40000;2,08000;917,69369;0,01081
62,50000;2,08336;918,58981;0,01082
62,60000;2,08664;920,52314;0,01084
62,70000;2,09000;921,03388;0,01086
62,80000;2,09339;922,59124;0,01088
62,90000;2,09672;923,43101;0,01089
63,00000;2,10011;925,18572;0,01091
63,10000;2,10344;926,34512;0,01093
63,20000;2,10669;926,67099;0,01095
63,30000;2,10994;927,75198;0,01096
63,40000;2,11330;929,48480;0,01098
63,50000;2,11666;930,55014;0,01100
63,60000;2,11997;932,36435;0,01102
63,70000;2,12330;931,46823;0,01103
63,80000;2,12664;933,76506;0,01105
63,90000;2,12988;935,37876;0,01107
64,00000;2,13322;936,51619;0,01109
64,10000;2,13661;938,15187;0,01111
64,20000;2,14000;938,48081;0,01112
64,30000;2,14333;939,74676;0,01114
64,40000;2,14669;940,45801;0,01116
64,50000;2,15005;941,87437;0,01118
64,60000;2,15336;943,92989;0,01120
64,70000;2,15672;944,30903;0,01122
64,80000;2,16008;945,86322;0,01123
64,90000;2,16339;945,89135;0,01125
65,00000;2,16669;947,77141;0,01127
65,10000;2,17000;949,41026;0,01129
65,20000;2,17330;949,70791;0,01131
65,30000;2,17658;951,05525;0,01132
65,40000;2,17994;952,05167;0,01134
65,50000;2,18333;953,20791;0,01136
65,60000;2,18666;955,34492;0,01138
65,70000;2,19000;955,98102;0,01140
65,80000;2,19333;956,31005;0,01142
65,90000;2,19664;958,58807;0,01144
66,00000;2,19997;959,50617;0,01146
66,10000;2,20336;961,56476;0,01148
66,20000;2,20672;961,64308;0,01149
66,30000;2,21005;963,08133;0,01151
66,40000;2,21336;963,27877;0,01153
66,50000;2,21666;964,29083;0,01155
66,60000;2,21991;966,45923;0,01157
66,70000;2,22330;967,11405;0,01158
66,80000;2,22666;968,08234;0,01160
66,90000;2,23003;969,13511;0,01162
67,00000;2,23336;970,44809;0,01164
67,10000;2,23666;972,63204;0,01165
67,20000;2,23997;972,38766;0,01167
67,30000;2,24330;974,14861;0,01169
67,40000;2,24672;974,70637;0,01171
67,50000;2,25011;976,37959;0,01173
67,60000;2,25344;978,00270;0,01175
67,70000;2,25672;978,36936;0,01176
67,80000;2,26003;979,60075;0,01178
67,90000;2,26330;980,65045;0,01180
68,00000;2,26658;982,13889;0,01182
68,10000;2,26994;983,43920;0,01183
68,20000;2,27330;983,90607;0,01185
68,30000;2,27664;985,07488;0,01187
68,40000;2,28000;986,08695;0,01189
68,50000;2,28333;987,17744;0,01191
68,60000;2,28661;989,16087;0,01192
68,70000;2,28997;988,96977;0,01194
68,80000;2,29336;991,85556;0,01196
68,90000;2,29672;992,05924;0,01198
69,00000;2,30008;994,06466;0,01200
69,10000;2,30339;994,46578;0,01202
69,20000;2,30666;995,86323;0,01203
69,30000;2,30994;996,79390;0,01205
69,40000;2,31330;998,07233;0,01207
69,50000;2,31666;999,12202;0,01209
69,60000;2,31997;1000,79523;0,01210
69,70000;2,32333;1001,16497;0,01212
69,80000;2,32664;1002,92601;0,01214
69,90000;2,32991;1004,12928;0,01216
70,00000;2,33322;1004,80607;0,01218
70,10000;2,33661;1006,46680;0,01219
70,20000;2,33994;1007,15300;0,01221
70,30000;2,34327;1007,72325;0,01223
70,40000;2,34664;1009,02049;0,01225
70,50000;2,35005;1010,31773;0,01227
70,60000;2,35333;1012,30433;0,01229
70,70000;2,35672;1012,84645;0,01230
70,80000;2,36008;1013,73009;0,01232
70,90000;2,36339;1014,58235;0,01234
71,00000;2,36672;1016,13654;0,01236
71,10000;2,37003;1018,05730;0,01238
71,20000;2,37330;1017,79727;0,01239
71,30000;2,37658;1019,01302;0,01241
71,40000;2,37994;1020,32907;0,01243
71,50000;2,38336;1022,15894;0,01245
71,60000;2,38675;1022,81701;0,01247
71,70000;2,39011;1024,38685;0,01248
71,80000;2,39344;1025,58378;0,01250
71,90000;2,39666;1026,72437;0,01252
72,00000;2,39997;1027,22254;0,01254
72,10000;2,40333;1028,79247;0,01256
72,20000;2,40669;1029,81394;0,01258
72,30000;2,41000;1031,11118;0,01259
72,40000;2,41333;1031,89135;0,01261
72,50000;2,41664;1032,93797;0,01263
72,60000;2,41991;1034,22580;0,01265
72,70000;2,42327;1034,99349;0,01267
72,80000;2,42664;1035,80188;0,01269
72,90000;2,43000;1036,98950;0,01271
73,00000;2,43333;1038,43715;0,01272
73,10000;2,43666;1039,73122;0,01274
73,20000;2,43997;1040,90311;0,01276
73,30000;2,44327;1041,41701;0,01278
73,40000;2,44666;1042,81763;0,01280
73,50000;2,45003;1044,47836;0,01282
73,60000;2,45339;1045,50300;0,01284
73,70000;2,45672;1046,07949;0,01286
73,80000;2,46005;1047,80290;0,01287
73,90000;2,46330;1048,16323;0,01289
74,00000;2,46661;1049,14093;0,01291
74,10000;2,46997;1050,93010;0,01293
74,20000;2,47330;1052,10515;0,01295
74,30000;2,47664;1052,44666;0,01296
74,40000;2,47994;1053,43992;0,01298
74,50000;2,48327;1054,97530;0,01300
74,60000;2,48661;1056,43868;0,01302
74,70000;2,49000;1057,13112;0,01304
74,80000;2,49339;1059,01435;0,01306
74,90000;2,49672;1059,45924;0,01308
75,00000;2,50008;1060,96333;0,01310
75,10000;2,50339;1061,80310;0,01312
75,20000;2,50669;1063,10975;0,01313
75,30000;2,50997;1063,60791;0,01315
75,40000;2,51333;1065,04615;0,01317
75,50000;2,51669;1066,64421;0,01319
75,60000;2,52003;1068,05423;0,01321
75,70000;2,52336;1068,48041;0,01323
75,80000;2,52669;1069,58337;0,01325
75,90000;2,53000;1071,37570;0,01326
76,00000;2,53330;1071,17519;0,01328
76,10000;2,53666;1072,45985;0,01330
76,20000;2,54003;1074,24278;0,01332
76,30000;2,54336;1075,19850;0,01334
76,40000;2,54669;1075,92233;0,01336
76,50000;2,55003;1076,84033;0,01338
76,60000;2,55330;1078,47285;0,01339
76,70000;2,55666;1079,50065;0,01341
76,80000;2,56003;1080,39994;0,01343
76,90000;2,56336;1081,11752;0,01345
77,00000;2,56669;1082,91926;0,01347
77,10000;2,57000;1083,47386;0,01349
77,20000;2,57330;1084,59871;0,01350
77,30000;2,57658;1085,44789;0,01352
77,40000;2,57997;1087,10239;0,01354
77,50000;2,58339;1089,00117;0,01356
77,60000;2,58672;1088,82263;0,01358
77,70000;2,59005;1090,16681;0,01360
77,80000;2,59339;1092,01241;0,01362
77,90000;2,59664;1092,52948;0,01363
78,00000;2,59997;1093,55403;0,01365
78,10000;2,60333;1094,77611;0,01367
78,20000;2,60669;1095,60648;0,01369
78,30000;2,61003;1097,50219;0,01371
78,40000;2,61336;1098,03798;0,01372
78,50000;2,61666;1099,18481;0,01374
78,60000;2,61991;1099,85229;0,01376
78,70000;2,62327;1101,15893;0,01378
78,80000;2,62664;1102,23368;0,01380
78,90000;2,63000;1103,65311;0,01382
79,00000;2,63333;1104,65270;0,01384
79,10000;2,63666;1105,67417;0,01385
79,20000;2,63994;1106,79595;0,01387
79,30000;2,64322;1107,10301;0,01389
79,40000;2,64663;1108,64779;0,01391
79,50000;2,65005;1110,11108;0,01393
79,60000;2,65342;1111,05116;0,01395
79,70000;2,65675;1111,33000;0,01397
79,80000;2,66008;1113,37611;0,01399
79,90000;2,66333;1113,74268;0,01400
80,00000;2,66666;1114,89585;0,01402
80,10000;2,67003;1116,34657;0,01404
80,20000;2,67336;1117,36497;0,01406
80,30000;2,67672;1118,78440;0,01408
80,40000;2,68003;1119,10086;0,01410
80,50000;2,68336;1119,88420;0,01412
80,60000;2,68658;1121,91467;0,01414
80,70000;2,68997;1121,74861;0,01415
80,80000;2,69330;1124,06733;0,01417
80,90000;2,69669;1124,87888;0,01419
81,00000;2,70003;1125,67479;0,01421
81,10000;2,70336;1126,94073;0,01423
81,20000;2,70664;1127,90894;0,01425
81,30000;2,70994;1128,44789;0,01427
81,40000;2,71333;1129,38788;0,01428
81,50000;2,71666;1130,98910;0,01430
81,60000;2,72003;1132,34902;0,01432
81,70000;2,72336;1133,04779;0,01434
81,80000;2,72669;1134,31998;0,01436
81,90000;2,72997;1136,10914;0,01438
82,00000;2,73327;1135,78634;0,01440
82,10000;2,73661;1137,59749;0,01442
82,20000;2,73997;1138,54064;0,01444
82,30000;2,74333;1139,58409;0,01446
82,40000;2,74666;1140,90638;0,01447
82,50000;2,75003;1141,71170;0,01449
82,60000;2,75330;1143,84871;0,01451
82,70000;2,75666;1143,91763;0,01453
82,80000;2,76003;1144,76047;0,01455
82,90000;2,76336;1145,94493;0,01457
83,00000;2,76669;1147,10433;0,01459
83,10000;2,77003;1148,54882;0,01461
83,20000;2,77330;1149,01569;0,01463
83,30000;2,77658;1150,11558;0,01464
83,40000;2,77997;1150,87070;0,01466
83,50000;2,78333;1152,19923;0,01468
83,60000;2,78669;1153,89135;0,01470
83,70000;2,79005;1154,67468;0,01472
83,80000;2,79342;1156,08787;0,01474
83,90000;2,79666;1157,22213;0,01476
84,00000;2,80000;1157,72663;0,01478
84,10000;2,80339;1159,50014;0,01480
84,20000;2,80672;1160,63133;0,01482
84,30000;2,81008;1161,07315;0,01484
84,40000;2,81339;1162,49574;0,01486
84,50000;2,81672;1163,32294;0,01488
84,60000;2,81997;1165,41609;0,01490
84,70000;2,82330;1165,28133;0,01491
84,80000;2,82663;1167,64074;0,01493
84,90000;2,82997;1167,40260;0,01495
85,00000;2,83330;1168,28941;0,01497
85,10000;2,83661;1170,18512;0,01499
85,20000;2,83991;1171,03746;0,01501
85,30000;2,84319;1171,36016;0,01503
85,40000;2,84661;1171,90229;0,01505
85,50000;2,85000;1174,17080;0,01507
85,60000;2,85339;1175,35219;0,01509
85,70000;2,85675;1176,02581;0,01511
85,80000;2,86008;1177,17581;0,01513
85,90000;2,86333;1178,28818;0,01515
86,00000;2,86663;1178,85219;0,01516
86,10000;2,87000;1180,25905;0,01518
86,20000;2,87336;1181,92919;0,01521
86,30000;2,87666;1183,06354;0,01522
86,40000;2,88000;1183,25781;0,01524
86,50000;2,88333;1185,17233;0,01526
86,60000;2,88661;1185,98696;0,01528
86,70000;2,88997;1186,78911;0,01530
86,80000;2,89336;1187,76048;0,01532
86,90000;2,89672;1188,60025;0,01534
87,00000;2,90005;1189,44943;0,01536
87,10000;2,90336;1191,44544;0,01538
87,20000;2,90666;1192,28829;0,01540
87,30000;2,90997;1192,51078;0,01542
87,40000;2,91333;1193,63880;0,01544
87,50000;2,91666;1195,24943;0,01546
87,60000;2,92003;1196,43696;0,01548
87,70000;2,92333;1197,84391;0,01550
87,80000;2,92666;1198,87786;0,01552
87,90000;2,92994;1199,08787;0,01553
88,00000;2,93327;1200,00597;0,01555
88,10000;2,93663;1201,74186;0,01557
88,20000;2,93997;1202,59412;0,01559
88,30000;2,94333;1202,76334;0,01562
88,40000;2,94666;1204,85332;0,01563
88,50000;2,95005;1205,34534;0,01565
88,60000;2,95333;1207,03103;0,01567
88,70000;2,95672;1208,01814;0,01570
88,80000;2,96008;1209,17121;0,01571
88,90000;2,96342;1209,79790;0,01574
89,00000;2,96672;1210,68461;0,01575
89,10000;2,97003;1212,00066;0,01577
89,20000;2,97327;1213,19452;0,01579
89,30000;2,97655;1213,79923;0,01581
89,40000;2,97994;1214,82080;0,01583
89,50000;2,98333;1215,79524;0,01585
89,60000;2,98666;1217,31497;0,01587
89,70000;2,99002;1217,93849;0,01589
89,80000;2,99336;1219,66815;0,01591
89,90000;2,99666;1220,38256;0,01593
90,00000;3,00000;1221,59841;0,01595
90,10000;3,00339;1222,57285;0,01598
90,20000;3,00672;1223,71968;0,01600
90,30000;3,01005;1224,53440;0,01602
90,40000;3,01339;1225,29268;0,01603
90,50000;3,01669;1227,10066;0,01606
90,60000;3,01991;1228,52009;0,01607
90,70000;3,02327;1228,41988;0,01609
90,80000;3,02663;1229,74524;0,01611
90,90000;3,03000;1230,93287;0,01613
91,00000;3,03333;1231,54074;0,01615
91,10000;3,03663;1233,44902;0,01617
91,20000;3,03994;1233,57745;0,01619
91,30000;3,04322;1234,44851;0,01621
91,40000;3,04658;1236,16569;0,01623
91,50000;3,04997;1237,59769;0,01625
91,60000;3,05336;1238,61600;0,01628
91,70000;3,05672;1239,60301;0,01629
91,80000;3,06008;1240,43338;0,01631
91,90000;3,06336;1241,63665;0,01633
92,00000;3,06663;1242,52969;0,01635
92,10000;3,07000;1243,02469;0,01637
92,20000;3,07333;1244,41283;0,01639
92,30000;3,07666;1246,09545;0,01642
92,40000;3,08000;1246,81620;0,01644
92,50000;3,08333;1248,11651;0,01645
92,60000;3,08661;1249,12867;0,01647
92,70000;3,09000;1249,76160;0,01649
92,80000;3,09342;1250,83635;0,01652
92,90000;3,09678;1252,17438;0,01654
93,00000;3,10011;1253,06109;0,01656
93,10000;3,10344;1254,51814;0,01658
93,20000;3,10669;1254,63717;0,01660
93,30000;3,10997;1256,40444;0,01662
93,40000;3,11330;1257,65158;0,01664
93,50000;3,11666;1258,85168;0,01666
93,60000;3,11997;1259,77919;0,01668
93,70000;3,12330;1260,58441;0,01670
93,80000;3,12663;1261,39913;0,01672
93,90000;3,12988;1261,81589;0,01674
94,00000;3,13322;1263,78369;0,01675
94,10000;3,13658;1264,90230;0,01678
94,20000;3,13994;1266,13686;0,01680
94,30000;3,14330;1266,55363;0,01682
94,40000;3,14669;1268,45250;0,01684
94,50000;3,15005;1269,71211;0,01686
94,60000;3,15336;1270,37019;0,01688
94,70000;3,15669;1271,19739;0,01690
94,80000;3,16005;1271,55455;0,01692
94,90000;3,16339;1272,71712;0,01694
95,00000;3,16669;1273,38767;0,01696
95,10000;3,17002;1274,94177;0,01698
95,20000;3,17330;1275,65311;0,01700
95,30000;3,17658;1276,82816;0,01702
95,40000;3,17997;1278,16293;0,01704
95,50000;3,18333;1279,41323;0,01706
95,60000;3,18663;1280,56630;0,01708
95,70000;3,19000;1281,78205;0,01710
95,80000;3,19333;1282,52786;0,01712
95,90000;3,19663;1283,22029;0,01714
96,00000;3,19997;1284,40792;0,01716
96,10000;3,20339;1284,74943;0,01718
96,20000;3,20672;1285,59228;0,01720
96,30000;3,21005;1287,51313;0,01722
96,40000;3,21336;1288,33093;0,01725
96,50000;3,21666;1290,29248;0,01727
96,60000;3,21994;1291,02878;0,01729
96,70000;3,22330;1291,58655;0,01731
96,80000;3,22663;1292,23205;0,01733
96,90000;3,23000;1293,34442;0,01735
97,00000;3,23333;1294,38154;0,01737
97,10000;3,23666;1295,72265;0,01739
97,20000;3,23997;1296,98236;0,01741
97,30000;3,24327;1297,80956;0,01743
97,40000;3,24669;1298,62735;0,01745
97,50000;3,25011;1299,91518;0,01747
97,60000;3,25344;1300,72990;0,01750
97,70000;3,25675;1302,08358;0,01752
97,80000;3,26005;1302,53164;0,01754
97,90000;3,26327;1303,71917;0,01756
98,00000;3,26658;1304,49310;0,01757
98,10000;3,26994;1305,88124;0,01760
98,20000;3,27330;1307,31640;0,01762
98,30000;3,27663;1307,55454;0,01764
98,40000;3,28000;1308,41937;0,01766
98,50000;3,28333;1310,29943;0,01768
98,60000;3,28663;1310,90730;0,01770
98,70000;3,29000;1311,78461;0,01772
98,80000;3,29339;1312,71211;0,01774
98,90000;3,29672;1313,91846;0,01776
99,00000;3,30008;1315,10608;0,01778
99,10000;3,30339;1315,96457;0,01780
99,20000;3,30666;1316,99238;0,01782
99,30000;3,30994;1317,29003;0,01784
99,40000;3,31330;1318,68757;0,01787
99,50000;3,31666;1319,99422;0,01789
99,60000;3,31997;1320,94678;0,01791
99,70000;3,32330;1321,92755;0,01793
99,80000;3,32661;1323,03052;0,01795
99,90000;3,32988;1323,76058;0,01797
100,00000;3,33324;1324,92622;0,01800
100,10000;3,33661;1325,86937;0,01802
100,20000;3,33994;1326,38011;0,01804
100,30000;3,34327;1327,34831;0,01806
100,40000;3,34663;1328,23512;0,01808
100,50000;3,35005;1329,98982;0,01810
100,60000;3,35333;1331,01447;0,01813
100,70000;3,35672;1331,59105;0,01815
100,80000;3,36008;1332,67520;0,01817
100,90000;3,36342;1333,54627;0,01819
101,00000;3,36675;1334,25128;0,01821
101,10000;3,37005;1335,66447;0,01823
101,20000;3,37330;1337,24995;0,01825
101,30000;3,37661;1337,57899;0,01827
101,40000;3,38000;1338,76968;0,01829
101,50000;3,38339;1340,01682;0,01831
101,60000;3,38675;1340,97561;0,01834
101,70000;3,39011;1341,85301;0,01836
101,80000;3,39341;1342,51099;0,01838
101,90000;3,39666;1343,44790;0,01840
102,00000;3,39997;1344,86109;0,01842
102,10000;3,40333;1346,15833;0,01844
102,20000;3,40666;1346,94483;0,01846
102,30000;3,41000;1347,75946;0,01848
102,40000;3,41330;1348,90629;0,01850
102,50000;3,41663;1349,93726;0,01852
102,60000;3,41991;1350,67040;0,01854
102,70000;3,42327;1351,63870;0,01856
102,80000;3,42663;1352,24033;0,01859
102,90000;3,43000;1353,48113;0,01861
103,00000;3,43333;1354,23625;0,01863
103,10000;3,43666;1355,54606;0,01865
103,20000;3,43997;1357,09709;0,01867
103,30000;3,44327;1357,90240;0,01869
103,40000;3,44666;1358,52592;0,01871
103,50000;3,45002;1359,69780;0,01873
103,60000;3,45339;1360,78829;0,01876
103,70000;3,45672;1361,25833;0,01878
103,80000;3,46005;1362,62449;0,01880
103,90000;3,46330;1363,26058;0,01882
104,00000;3,46661;1364,62357;0,01884
104,10000;3,47000;1365,53850;0,01886
104,20000;3,47330;1366,98307;0,01888
104,30000;3,47663;1366,94862;0,01890
104,40000;3,47997;1368,40567;0,01892
104,50000;3,48333;1370,14464;0,01895
104,60000;3,48663;1371,25077;0,01897
104,70000;3,49000;1371,26641;0,01899
104,80000;3,49339;1372,66079;0,01901
104,90000;3,49672;1373,19351;0,01903
105,00000;3,50008;1374,01763;0,01906
105,10000;3,50339;1375,41825;0,01908
105,20000;3,50666;1375,67203;0,01910
105,30001;3,50994;1376,78124;0,01912
105,40001;3,51330;1377,82786;0,01914
105,50001;3,51666;1379,02480;0,01916
105,60001;3,52000;1379,87714;0,01918
105,70001;3,52336;1380,89545;0,01920
105,80001;3,52669;1382,73481;0,01923
105,90001;3,52997;1382,62194;0,01925
106,00001;3,53330;1383,87848;0,01927
106,10001;3,53666;1384,84668;0,01929
106,20001;3,54002;1386,23482;0,01931
106,30001;3,54333;1386,52623;0,01933
106,40001;3,54666;1387,87050;0,01935
106,50001;3,55002;1388,97970;0,01938
106,60001;3,55327;1389,65650;0,01940
106,70001;3,55663;1390,77827;0,01942
106,80001;3,56002;1391,62121;0,01944
106,90001;3,56339;1392,36376;0,01947
107,00001;3,56669;1393,97122;0,01949
107,10001;3,57000;1394,78594;0,01951
107,20001;3,57330;1396,05813;0,01953
107,30001;3,57661;1396,63778;0,01955
107,40001;3,58000;1397,03257;0,01957
107,50001;3,58339;1399,35138;0,01959
107,60001;3,58672;1398,74974;0,01962
107,70001;3,59005;1399,82766;0,01964
107,80001;3,59336;1400,52009;0,01966
107,90001;3,59666;1401,81109;0,01968
108,00001;3,60000;1403,08952;0,01970
108,10001;3,60336;1404,36478;0,01973
108,20001;3,60669;1405,59310;0,01975
108,30001;3,61002;1406,06631;0,01977
108,40001;3,61333;1407,04075;0,01979
108,50001;3,61663;1408,44453;0,01981
108,60001;3,61988;1408,66078;0,01984
108,70001;3,62322;1410,01437;0,01986
108,80001;3,62661;1410,85731;0,01988
108,90001;3,63000;1411,95394;0,01990
109,00001;3,63336;1412,74985;0,01992
109,10001;3,63666;1413,85905;0,01995
109,20001;3,63994;1415,42898;0,01997
109,30001;3,64324;1415,71406;0,01999
109,40001;3,64666;1416,94238;0,02001
109,50001;3,65005;1417,87929;0,02004
109,60001;3,65341;1418,67828;0,02006
109,70001;3,65678;1419,43032;0,02008
109,80001;3,66011;1420,93748;0,02010
109,90001;3,66336;1421,73339;0,02013
110,00001;3,66666;1421,95588;0,02015
110,10001;3,67002;1423,52255;0,02017
110,20001;3,67336;1424,65997;0,02019
110,30001;3,67672;1425,44964;0,02021
110,40001;3,68005;1425,92592;0,02024
110,50001;3,68336;1426,87224;0,02026
110,60001;3,68661;1428,37316;0,02028
110,70001;3,68997;1429,08758;0,02030
110,80001;3,69333;1430,11529;0,02033
110,90001;3,69669;1431,72899;0,02035
111,00001;3,70002;1431,33420;0,02037
111,10001;3,70336;1432,94167;0,02039
111,20001;3,70663;1433,82838;0,02041
111,30001;3,70994;1434,66508;0,02044
111,40001;3,71330;1435,89964;0,02046
111,50001;3,71666;1437,35670;0,02048
111,60001;3,72000;1437,53523;0,02051
111,70001;3,72336;1438,08052;0,02053
111,80001;3,72669;1438,96407;0,02055
111,90001;3,72994;1440,61856;0,02057
112,00001;3,73327;1441,38001;0,02060
112,10001;3,73661;1442,28237;0,02062
112,20001;3,73997;1443,53574;0,02064
112,30001;3,74333;1443,88042;0,02066
112,40001;3,74669;1445,08686;0,02069
112,50001;3,75002;1445,72286;0,02071
112,60001;3,75330;1447,24259;0,02073
112,70001;3,75666;1447,76274;0,02076
112,80001;3,76002;1448,86263;0,02078
112,90001;3,76339;1449,69923;0,02080
113,00001;3,76669;1450,40741;0,02083
113,10001;3,77000;1452,25292;0,02085
113,20001;3,77330;1452,96426;0,02087
113,30001;3,77658;1453,06140;0,02089
113,40001;3,77997;1454,60302;0,02092
113,50001;3,78333;1455,85639;0,02094
113,60001;3,78672;1456,47991;0,02096
113,70001;3,79005;1457,02828;0,02099
113,80001;3,79341;1458,11243;0,02101
113,90001;3,79669;1459,32510;0,02103
114,00001;3,80000;1460,54402;0,02106
114,10001;3,80336;1461,05476;0,02108
114,20001;3,80672;1462,17030;0,02110
114,30001;3,81005;1462,77817;0,02112
114,40001;3,81339;1463,15414;0,02115
114,50001;3,81669;1464,10987;0,02117
114,60001;3,81994;1465,28492;0,02120
114,70001;3,82330;1466,72940;0,02122
114,80001;3,82663;1467,50025;0,02124
114,90001;3,82997;1468,24913;0,02126
115,00001;3,83330;1469,10455;0,02128
115,10001;3,83661;1470,68063;0,02131
115,20001;3,83991;1470,64300;0,02133
115,30001;3,84322;1471,44515;0,02135
115,40001;3,84663;1472,63594;0,02138
115,50001;3,85005;1473,66682;0,02140
115,60001;3,85339;1474,76038;0,02142
115,70001;3,85675;1475,54372;0,02145
115,80001;3,86008;1476,86917;0,02147
115,90001;3,86333;1477,72459;0,02149
116,00001;3,86663;1478,69904;0,02151
116,10001;3,87002;1479,76754;0,02154
116,20001;3,87336;1481,11181;0,02156
116,30001;3,87666;1481,20271;0,02159
116,40001;3,88002;1482,23676;0,02161
116,50001;3,88336;1483,87551;0,02163
116,60001;3,88663;1484,60558;0,02166
116,70001;3,88997;1486,05946;0,02168
116,80001;3,89336;1486,34147;0,02170
116,90001;3,89669;1486,84597;0,02173
117,00001;3,90005;1487,76406;0,02175
117,10001;3,90336;1488,92971;0,02177
117,20001;3,90663;1489,41539;0,02179
117,30001;3,90994;1490,18932;0,02182
117,40001;3,91333;1491,65895;0,02184
117,50001;3,91666;1492,80261;0,02186
117,60001;3,92000;1493,40108;0,02189
117,70001;3,92336;1494,18758;0,02191
117,80001;3,92666;1495,11509;0,02193
117,90001;3,92991;1496,79147;0,02196
118,00001;3,93324;1496,71314;0,02198
118,10001;3,93661;1497,76600;0,02200
118,20001;3,93997;1499,24811;0,02202
118,30001;3,94333;1499,57705;0,02205
118,40001;3,94669;1500,30088;0,02207
118,50001;3,95005;1501,37255;0,02210
118,60001;3,95336;1503,04269;0,02212
118,70001;3,95678;1503,80097;0,02214
118,80001;3,96008;1503,89178;0,02217
118,90001;3,96341;1504,82869;0,02219
119,00001;3,96672;1505,59330;0,02221
119,10001;3,97002;1507,09422;0,02224
119,20001;3,97330;1508,36008;0,02226
119,30001;3,97658;1508,64208;0,02228
119,40001;3,97994;1509,45988;0,02231
119,50001;3,98333;1510,85118;0,02233
119,60001;3,98666;1512,27061;0,02236
119,70001;3,99002;1513,45190;0,02238
119,80001;3,99336;1513,05078;0,02240
119,90001;3,99666;1514,31989;0,02243
120,00001;3,99997;1514,25721;0,02245
120,10001;4,00336;1515,83329;0,02247
120,20001;4,00672;1516,66682;0,02249
120,30001;4,01005;1517,23390;0,02252
120,40001;4,01339;1518,52807;0,02254
120,50001;4,01669;1518,28360;0,02257
120,60001;4,01991;1519,89106;0,02259
120,70001;4,02327;1520,84054;0,02261
120,80001;4,02663;1521,84004;0,02264
120,90001;4,03000;1522,92112;0,02266
121,00001;4,03333;1523,82357;0,02269
121,10001;4,03666;1524,19638;0,02271
121,20001;4,03994;1525,44668;0,02273
121,30001;4,04321;1525,80077;0,02275
121,40001;4,04658;1527,03840;0,02278
121,50001;4,04997;1527,67142;0,02280
121,60001;4,05333;1529,10650;0,02283
121,70001;4,05672;1529,53267;0,02285
121,80001;4,06011;1530,10916;0,02288
121,90001;4,06339;1531,61949;0,02290
122,00001;4,06666;1532,75384;0,02293
122,10001;4,07000;1533,86304;0,02295
122,20001;4,07333;1534,80936;0,02297
122,30001;4,07666;1535,13206;0,02300
122,40001;4,08000;1536,05016;0,02302
122,50001;4,08336;1536,30394;0,02305
122,60001;4,08663;1537,15936;0,02307
122,70001;4,09000;1538,57572;0,02309
122,80001;4,09339;1538,94862;0,02312
122,90001;4,09678;1539,76018;0,02314
123,00001;4,10011;1540,91008;0,02317
123,10001;4,10344;1542,47368;0,02319
123,20001;4,10669;1542,91233;0,02322
123,30001;4,10994;1543,54535;0,02324
123,40001;4,11330;1544,40384;0,02326
123,50001;4,11666;1545,66038;0,02329
123,60001;4,11997;1547,13932;0,02331
123,70001;4,12330;1547,81928;0,02333
123,80001;4,12663;1547,82562;0,02336
123,90001;4,12988;1549,13226;0,02339
124,00001;4,13321;1549,29198;0,02341
124,10001;4,13660;1550,27593;0,02343
124,20001;4,13997;1551,42276;0,02346
124,30001;4,14333;1552,47562;0,02348
124,40001;4,14669;1552,49434;0,02350
124,50001;4,15005;1553,66315;0,02353
124,60001;4,15336;1555,18912;0,02356
124,70001;4,15672;1556,26703;0,02358
124,80001;4,16008;1556,65558;0,02361
124,90001;4,16339;1557,38257;0,02363
125,00001;4,16669;1558,33513;0,02365
125,10001;4,17000;1559,46622;0,02368
125,20001;4,17330;1559,75139;0,02370
125,30001;4,17658;1559,89863;0,02373
125,40001;4,17997;1561,68472;0,02375
125,50001;4,18333;1562,79709;0,02378
125,60001;4,18663;1564,23841;0,02380
125,70001;4,19000;1564,57685;0,02383
125,80001;4,19333;1565,59516;0,02385
125,90001;4,19660;1566,42236;0,02388
126,00001;4,19997;1566,94576;0,02390
126,10001;4,20336;1567,58800;0,02393
126,20001;4,20672;1568,86335;0,02395
126,30001;4,21005;1569,42420;0,02398
126,40001;4,21336;1570,31100;0,02400
126,50001;4,21666;1570,53974;0,02403
126,60001;4,21994;1571,67409;0,02405
126,70001;4,22330;1572,68308;0,02407
126,80001;4,22663;1573,04332;0,02410
126,90001;4,23002;1574,12123;0,02412
127,00001;4,23339;1575,68473;0,02415
127,10001;4,23666;1576,22695;0,02417
127,20001;4,24000;1576,52460;0,02420
127,30001;4,24333;1577,76847;0,02423
127,40001;4,24675;1578,91233;0,02425
127,50001;4,25011;1578,92164;0,02428
127,60001;4,25344;1580,34731;0,02430
127,70001;4,25675;1580,44770;0,02433
127,80001;4,26005;1582,06448;0,02435
127,90001;4,26327;1583,20200;0,02438
128,00001;4,26658;1583,90068;0,02440
128,10001;4,26994;1584,71856;0,02443
128,20001;4,27330;1585,39526;0,02445
128,30001;4,27663;1585,82460;0,02448
128,40001;4,27997;1586,92133;0,02450
128,50001;4,28333;1587,61684;0,02453
128,60001;4,28658;1588,09014;0,02455
128,70001;4,28997;1589,76652;0,02458
128,80001;4,29336;1589,59404;0,02460
128,90001;4,29672;1591,02604;0,02463
129,00001;4,30008;1592,28891;0,02465
129,10001;4,30339;1593,23514;0,02468
129,20001;4,30666;1593,43872;0,02471
129,30001;4,30994;1594,61703;0,02473
129,40001;4,31330;1595,11212;0,02475
129,50001;4,31666;1595,91418;0,02478
129,60001;4,31997;1596,87307;0,02480
129,70001;4,32333;1597,37431;0,02483
129,80001;4,32666;1598,43042;0,02485
129,90001;4,32991;1599,67113;0,02488
130,00001;4,33324;1599,29823;0,02490
130,10001;4,33660;1600,63002;0,02493
130,20001;4,33994;1601,40079;0,02495
130,30001;4,34327;1602,24680;0,02498
130,40001;4,34663;1603,31223;0,02500
130,50001;4,35005;1604,36202;0,02503
130,60001;4,35336;1605,24249;0,02506
130,70001;4,35672;1605,26428;0,02508
130,80001;4,36011;1606,58974;0,02511
130,90001;4,36341;1607,20088;0,02513
131,00001;4,36675;1608,34454;0,02516
131,10001;4,37005;1609,50385;0,02518
131,20001;4,37330;1609,33789;0,02521
131,30001;4,37658;1610,25282;0,02523
131,40001;4,37997;1611,01725;0,02526
131,50001;4,38339;1612,60292;0,02529
131,60001;4,38675;1613,38001;0,02531
131,70001;4,39011;1614,34505;0,02534
131,80001;4,39341;1614,58626;0,02536
131,90001;4,39666;1616,11550;0,02539
132,00001;4,39997;1616,43811;0,02542
132,10001;4,40333;1616,67950;0,02544
132,20001;4,40666;1617,80119;0,02547
132,30001;4,40999;1619,03575;0,02549
132,40001;4,41330;1618,72562;0,02552
132,50001;4,41660;1620,37686;0,02554
132,60001;4,41991;1620,84680;0,02557
132,70001;4,42327;1622,27880;0,02559
132,80001;4,42663;1623,12798;0,02562
132,90001;4,42999;1623,67951;0,02565
133,00001;4,43333;1624,41581;0,02567
133,10001;4,43666;1624,94220;0,02570
133,20001;4,43994;1625,79454;0,02572
133,30001;4,44327;1626,64372;0,02575
133,40001;4,44666;1627,43013;0,02577
133,50001;4,45002;1628,33575;0,02580
133,60001;4,45339;1628,93739;0,02583
133,70001;4,45675;1630,02778;0,02585
133,80001;4,46008;1630,84250;0,02588
133,90001;4,46333;1631,38770;0,02591
134,00001;4,46663;1631,41601;0,02593
134,10001;4,46997;1632,40302;0,02596
134,20001;4,47330;1633,80671;0,02598
134,30001;4,47663;1634,47410;0,02601
134,40001;4,47997;1635,68985;0,02603
134,50001;4,48330;1635,77758;0,02606
134,60001;4,48658;1637,10937;0,02609
134,70001;4,48999;1638,34076;0,02611
134,80001;4,49338;1638,39720;0,02614
134,90001;4,49675;1639,66622;0,02617
135,00001;4,50011;1640,12685;0,02619
135,10001;4,50341;1640,89147;0,02622
135,20001;4,50666;1641,49310;0,02625
135,30001;4,50994;1642,05395;0,02627
135,40001;4,51333;1643,25405;0,02630
135,50001;4,51666;1644,07808;0,02632
135,60001;4,51999;1644,82072;0,02635
135,70001;4,52336;1645,51325;0,02638
135,80001;4,52669;1646,13985;0,02640
135,90001;4,52997;1647,45916;0,02643
136,00001;4,53327;1647,64710;0,02645
136,10001;4,53666;1648,33646;0,02648
136,20001;4,54002;1649,09791;0,02651
136,30001;4,54336;1650,75865;0,02653
136,40001;4,54672;1650,44200;0,02656
136,50001;4,55005;1651,55437;0,02659
136,60001;4,55330;1652,15917;0,02661
136,70001;4,55666;1653,25273;0,02664
136,80001;4,56002;1653,60365;0,02667
136,90001;4,56336;1654,36510;0,02669
137,00001;4,56669;1655,07961;0,02672
137,10001;4,56999;1656,07911;0,02675
137,20001;4,57330;1656,93760;0,02677
137,30001;4,57660;1657,31683;0,02680
137,40001;4,57999;1657,92163;0,02682
137,50001;4,58338;1659,27522;0,02685
137,60001;4,58672;1660,11490;0,02688
137,70001;4,59005;1660,29036;0,02691
137,80001;4,59336;1661,37461;0,02693
137,90001;4,59666;1662,39925;0,02696
138,00001;4,59999;1662,73136;0,02699
138,10001;4,60336;1663,61500;0,02701
138,20001;4,60669;1664,22296;0,02704
138,30001;4,60999;1664,90916;0,02707
138,40001;4,61333;1665,04700;0,02709
138,50001;4,61666;1666,07164;0,02712
138,60001;4,61991;1667,12757;0,02714
138,70001;4,62330;1667,32185;0,02717
138,80001;4,62663;1668,40609;0,02720
138,90001;4,62999;1669,59036;0,02723
139,00001;4,63336;1669,57788;0,02725
139,10001;4,63666;1671,34199;0,02728
139,20001;4,63994;1671,32635;0,02731
139,30001;4,64321;1671,97809;0,02733
139,40001;4,64663;1672,91500;0,02736
139,50001;4,65005;1673,88953;0,02739
139,60001;4,65341;1673,62951;0,02741
139,70001;4,65675;1674,30937;0,02744
139,80001;4,66008;1675,76950;0,02747
139,90001;4,66333;1676,80364;0,02749
140,00001;4,66663;1676,80979;0,02752
140,10001;4,66999;1677,75620;0,02755
140,20001;4,67336;1678,72440;0,02757
140,30001;4,67669;1679,46070;0,02760
140,40001;4,68002;1680,09363;0,02763
140,50001;4,68336;1680,53228;0,02766
140,60001;4,68660;1682,23698;0,02768
140,70001;4,68999;1682,45621;0,02771
140,80001;4,69333;1683,07982;0,02774
140,90001;4,69669;1683,78484;0,02776
141,00001;4,70002;1683,58739;0,02779
141,10001;4,70338;1684,98177;0,02782
141,20001;4,70666;1685,74322;0,02785
141,30001;4,70994;1687,07184;0,02787
141,40001;4,71333;1687,63902;0,02790
141,50001;4,71669;1687,68913;0,02792
141,60001;4,72002;1688,24680;0,02795
141,70001;4,72336;1689,11479;0,02798
141,80001;4,72669;1690,68146;0,02801
141,90001;4,72997;1691,16091;0,02803
142,00001;4,73327;1691,80948;0,02806
142,10001;4,73663;1692,46439;0,02809
142,20001;4,73999;1693,05038;0,02811
142,30001;4,74333;1693,13196;0,02814
142,40001;4,74666;1694,25681;0,02817
142,50001;4,74999;1694,82399;0,02820
142,60001;4,75327;1695,78269;0,02823
142,70001;4,75663;1697,08319;0,02825
142,80001;4,76002;1697,13646;0,02828
142,90001;4,76336;1697,20538;0,02831
143,00001;4,76669;1698,70947;0,02833
143,10001;4,76999;1699,36419;0,02836
143,20001;4,77330;1700,19455;0,02839
143,30001;4,77658;1700,66785;0,02842
143,40001;4,77997;1701,04057;0,02845
143,50001;4,78336;1702,25948;0,02847
143,60001;4,78672;1702,86745;0,02850
143,70001;4,79005;1703,05222;0,02853
143,80001;4,79338;1703,73544;0,02856
143,90001;4,79666;1705,22686;0,02859
144,00001;4,79997;1705,25815;0,02861
144,10001;4,80336;1706,49271;0,02864
144,20001;4,80672;1706,70282;0,02867
144,30001;4,81008;1708,29147;0,02870
144,40001;4,81341;1708,58912;0,02873
144,50001;4,81672;1708,40099;0,02876
144,60001;4,81997;1709,77656;0,02878
144,70001;4,82333;1710,68851;0,02881
144,80001;4,82666;1710,87962;0,02884
144,90001;4,82997;1711,67552;0,02887
145,00001;4,83333;1712,63125;0,02889
145,10001;4,83663;1713,04792;0,02892
145,20001;4,83994;1713,17011;0,02895
145,30001;4,84321;1714,07573;0,02898
145,40001;4,84660;1714,81203;0,02901
145,50001;4,85002;1715,32910;0,02903
145,60001;4,85338;1716,76110;0,02906
145,70001;4,85675;1716,74844;0,02909
145,80001;4,86008;1717,63524;0,02912
145,90001;4,86333;1718,06458;0,02914
146,00001;4,86663;1718,73514;0,02917
146,10001;4,86999;1720,30497;0,02920
146,20001;4,87333;1720,46479;0,02923
146,30001;4,87666;1721,06959;0,02926
146,40001;4,87999;1721,33576;0,02929
146,50001;4,88333;1721,89362;0,02931
146,60001;4,88658;1723,71101;0,02934
146,70001;4,88997;1723,85201;0,02937
146,80001;4,89333;1724,22174;0,02940
146,90001;4,89672;1724,71683;0,02943
147,00001;4,90005;1725,71018;0,02946
147,10001;4,90336;1726,39955;0,02948
147,20001;4,90666;1726,97287;0,02951
147,30001;4,90994;1727,59015;0,02954
147,40001;4,91330;1727,93176;0,02957
147,50001;4,91666;1728,85600;0,02960
147,60001;4,91999;1729,86817;0,02963
147,70001;4,92333;1730,43534;0,02965
147,80001;4,92666;1730,98370;0,02968
147,90001;4,92994;1731,70436;0,02971
148,00001;4,93327;1732,00835;0,02974
148,10001;4,93663;1733,12370;0,02976
148,20001;4,93999;1733,41837;0,02979
148,30001;4,94333;1734,28319;0,02982
148,40001;4,94669;1734,63412;0,02985
148,50001;4,95005;1734,70303;0,02988
148,60001;4,95336;1735,46448;0,02991
148,70001;4,95675;1736,93709;0,02994
148,80001;4,96011;1737,19414;0,02997
148,90001;4,96341;1737,53258;0,02999
149,00001;4,96672;1738,12471;0,03002
149,10001;4,97002;1739,18698;0,03005
149,20001;4,97330;1739,51909;0,03008
149,30001;4,97655;1739,77613;0,03011
149,40001;4,97994;1740,81326;0,03014
149,50001;4,98333;1741,76581;0,03017
149,60001;4,98669;1742,66193;0,03020
149,70001;4,99002;1742,95027;0,03022
149,80001;4,99336;1743,93728;0,03025
149,90001;4,99666;1744,78646;0,03028
150,00001;4,99999;1745,00253;0,03031
150,10001;5,00338;1746,29036;0,03034
150,20001;5,00672;1746,19332;0,03037
150,30001;5,01005;1746,74485;0,03040
150,40001;5,01336;1746,89833;0,03043
150,50001;5,01666;1748,12973;0,03046
150,60001;5,01991;1748,86603;0,03048
150,70001;5,02327;1749,84690;0,03051
150,80001;5,02663;1749,98790;0,03054
150,90001;5,03002;1751,10027;0,03057
151,00001;5,03336;1751,26325;0,03060
151,10001;5,03666;1752,11858;0,03063
151,20001;5,03994;1751,91816;0,03066
151,30001;5,04321;1752,85488;0,03068
151,40001;5,04658;1753,81377;0,03071
151,50001;5,04997;1754,10211;0,03074
151,60001;5,05336;1756,16071;0,03077
151,70001;5,05675;1755,39926;0,03080
151,80001;5,06008;1756,00722;0,03083
151,90001;5,06336;1756,21398;0,03086
152,00001;5,06663;1757,29506;0,03089
152,10001;5,06999;1758,48883;0,03092
152,20001;5,07333;1758,66429;0,03095
152,30001;5,07666;1759,18136;0,03098
152,40001;5,08002;1759,52911;0,03101
152,50001;5,08336;1759,97727;0,03104
152,60001;5,08663;1761,46571;0,03106
152,70001;5,08999;1761,63483;0,03109
152,80001;5,09341;1762,22399;0,03112
152,90001;5,09677;1762,81612;0,03115
152,96001;5,09880;1511,68779;0,03557
152,96601;5,09900;1208,45363;0,04167
152,97001;5,09911;996,87846;0,04604
