Text Inputs : Specimen label;"1"
Dimension : Length;50,00000;mm
Dimension : Final length;100,00000;mm
Test : Rate 1;2,00000;mm/min
General : Unique Identifier;"{25BB9B91-03BB-4F32-ABA2-A2F89CFA4255}"

Time;Extension;Load;Strain 1
(sec);(mm);(N);(mm/mm)
0,00000;0,00000;9,14118;0,00002
0,10000;0,00191;8,77769;0,00002
0,20000;0,00496;9,60178;0,00002
0,30000;0,00849;9,20071;0,00002
0,40000;0,01211;11,03376;0,00003
0,50000;0,01570;13,21776;0,00005
0,60000;0,01926;16,91207;0,00007
0,70000;0,02279;20,50297;0,00010
0,80000;0,02632;23,92781;0,00012
0,90000;0,02980;27,54692;0,00015
1,00000;0,03322;31,39790;0,00017
1,10000;0,03658;33,73544;0,00020
1,20000;0,03994;37,05373;0,00022
1,30000;0,04325;39,69207;0,00024
1,40000;0,04661;42,23955;0,00026
1,50000;0,05000;44,88103;0,00029
1,60000;0,05333;48,15232;0,00031
1,70000;0,05667;50,13578;0,00033
1,80000;0,06000;52,89633;0,00035
1,90000;0,06328;56,23030;0,00037
2,00000;0,06658;58,09781;0,00040
2,10000;0,06994;59,94027;0,00042
2,20000;0,07330;63,32437;0,00044
2,30000;0,07667;65,71517;0,00046
2,40000;0,08000;67,90231;0,00048
2,50000;0,08333;69,69150;0,00050
2,60000;0,08664;72,15122;0,00053
2,70000;0,09000;74,16289;0,00055
2,80000;0,09339;76,33435;0,00057
2,90000;0,09675;78,67189;0,00059
3,00000;0,10009;80,54255;0,00061
3,10000;0,10339;83,12135;0,00063
3,20000;0,10667;84,10525;0,00065
3,30000;0,10994;85,41502;0,00066
3,40000;0,11330;87,05694;0,00068
3,50000;0,11667;87,08826;0,00069
3,60000;0,11997;88,23511;0,00070
3,70000;0,12330;88,20377;0,00071
3,80000;0,12661;87,73062;0,00071
3,90000;0,12989;88,31971;0,00072
4,00000;0,13325;88,84926;0,00072
4,10000;0,13664;89,46027;0,00073
4,20000;0,14000;88,41684;0,00073
4,30000;0,14333;87,56455;0,00074
4,40000;0,14669;88,54218;0,00074
4,50000;0,15006;88,84299;0,00074
4,60000;0,15333;89,49474;0,00075
4,70000;0,15669;89,11873;0,00075
4,80000;0,16006;89,34120;0,00076
4,90000;0,16339;88,84299;0,00076
5,00000;0,16669;89,32553;0,00076
5,10000;0,17003;89,60441;0,00076
5,20000;0,17330;88,83985;0,00076
5,30000;0,17661;89,45087;0,00077
5,40000;0,17997;89,09679;0,00077
5,50000;0,18333;89,06546;0,00077
5,60000;0,18664;89,47281;0,00078
5,70000;0,19000;89,49474;0,00078
5,80000;0,19333;89,06546;0,00078
5,90000;0,19661;88,99339;0,00078
6,00000;0,19994;90,38777;0,00078
6,10000;0,20333;89,46341;0,00079
6,20000;0,20669;88,55471;0,00079
6,30000;0,21003;88,52024;0,00079
6,40000;0,21336;88,83985;0,00079
6,50000;0,21667;88,91505;0,00079
6,60000;0,21991;89,16573;0,00080
6,70000;0,22328;89,99609;0,00080
6,80000;0,22667;89,24407;0,00080
6,90000;0,23003;89,15947;0,00080
7,00000;0,23336;90,28750;0,00080
7,10000;0,23667;89,11873;0,00080
7,20000;0,24000;89,04353;0,00081
7,30000;0,24333;89,31927;0,00081
7,40000;0,24672;89,28480;0,00081
7,50000;0,25011;89,87702;0,00081
7,60000;0,25342;90,18723;0,00081
7,70000;0,25672;89,40074;0,00081
7,80000;0,26003;89,86449;0,00081
7,90000;0,26328;89,45714;0,00082
8,00000;0,26661;90,13083;0,00082
8,10000;0,26994;89,35060;0,00082
8,20000;0,27333;89,07173;0,00082
8,30000;0,27667;89,52920;0,00082
8,40000;0,28000;89,18766;0,00082
8,50000;0,28333;89,89582;0,00082
8,60000;0,28661;89,28793;0,00082
8,70000;0,28997;89,91775;0,00082
8,80000;0,29333;90,07442;0,00082
8,90000;0,29672;89,60441;0,00082
9,00000;0,30006;89,61068;0,00083
9,10000;0,30339;89,17199;0,00083
9,20000;0,30664;89,75168;0,00083
9,30000;0,30991;90,21856;0,00083
9,40000;0,31328;89,28480;0,00083
9,50000;0,31667;89,66081;0,00083
9,60000;0,31997;89,61381;0,00083
9,70000;0,32333;89,43208;0,00083
9,80000;0,32667;89,70782;0,00083
9,90000;0,32991;89,93655;0,00083
10,00000;0,33325;90,27183;0,00084
10,10000;0,33661;90,39403;0,00084
10,20000;0,33997;90,47551;0,00084
10,30000;0,34330;91,22440;0,00084
10,40000;0,34667;89,87702;0,00084
10,50000;0,35006;90,92358;0,00084
10,60000;0,35333;91,24005;0,00084
10,70000;0,35669;90,76691;0,00084
10,80000;0,36009;90,36583;0,00084
10,90000;0,36339;90,36897;0,00084
11,00000;0,36672;90,55070;0,00084
11,10000;0,37003;90,12456;0,00084
11,20000;0,37330;90,75751;0,00084
11,30000;0,37661;90,56011;0,00084
11,40000;0,37997;90,56011;0,00084
11,50000;0,38339;91,10533;0,00085
11,60000;0,38675;90,63218;0,00085
11,70000;0,39009;91,39046;0,00085
11,80000;0,39339;90,73871;0,00085
11,90000;0,39667;90,63531;0,00085
12,00000;0,39997;91,45626;0,00085
12,10000;0,40333;92,02028;0,00085
12,20000;0,40669;91,72887;0,00085
12,30000;0,41000;92,31482;0,00086
12,40000;0,41333;91,99835;0,00086
12,50000;0,41664;91,80721;0,00086
12,60000;0,41991;92,77543;0,00086
12,70000;0,42328;93,42405;0,00086
12,80000;0,42664;93,19219;0,00087
12,90000;0,43000;94,13535;0,00087
13,00000;0,43333;95,96840;0,00087
13,10000;0,43667;95,32918;0,00088
13,20000;0,43997;96,12507;0,00088
13,30000;0,44328;97,08076;0,00088
13,40000;0,44667;97,01183;0,00089
13,50000;0,45003;98,95142;0,00090
13,60000;0,45339;100,75941;0,00091
13,70000;0,45672;102,37938;0,00092
13,80000;0,46006;104,44431;0,00093
13,90000;0,46330;106,01729;0,00094
14,00000;0,46664;107,75948;0,00095
14,10000;0,46997;108,72458;0,00096
14,20000;0,47330;109,89647;0,00097
14,30000;0,47661;111,01511;0,00098
14,40000;0,47997;113,00483;0,00099
14,50000;0,48328;114,75328;0,00100
14,60000;0,48658;116,21973;0,00101
14,70000;0,48997;118,28779;0,00102
14,80000;0,49336;119,04608;0,00103
14,90000;0,49672;120,70052;0,00104
15,00000;0,50008;122,52105;0,00105
15,10000;0,50342;122,31111;0,00106
15,20000;0,50669;124,72385;0,00107
15,30000;0,50997;125,58240;0,00108
15,40000;0,51333;127,55647;0,00109
15,50000;0,51667;130,26374;0,00111
15,60000;0,52003;131,57038;0,00112
15,70000;0,52339;133,69798;0,00113
15,80000;0,52669;135,49969;0,00115
15,90000;0,52997;137,12595;0,00116
16,00000;0,53330;139,47601;0,00118
16,10000;0,53664;141,04899;0,00119
16,20000;0,54000;143,49933;0,00121
16,30000;0,54333;144,42683;0,00122
16,40000;0,54669;146,36641;0,00124
16,50000;0,55003;149,38391;0,00125
16,60000;0,55328;150,49627;0,00127
16,70000;0,55664;152,78681;0,00129
16,80000;0,56000;155,21521;0,00130
16,90000;0,56336;156,07690;0,00132
17,00000;0,56669;158,66511;0,00133
17,10000;0,57000;160,80211;0,00135
17,20000;0,57330;162,24348;0,00137
17,30000;0,57658;164,19247;0,00138
17,40000;0,57997;167,01883;0,00140
17,50000;0,58336;169,00229;0,00142
17,60000;0,58672;171,00767;0,00143
17,70000;0,59006;173,51442;0,00145
17,80000;0,59336;175,17513;0,00147
17,90000;0,59664;177,55653;0,00149
18,00000;0,59997;179,39899;0,00151
18,10000;0,60333;181,25084;0,00153
18,20000;0,60669;183,62598;0,00155
18,30000;0,61003;185,42457;0,00156
18,40000;0,61336;187,81223;0,00158
18,50000;0,61667;190,70125;0,00160
18,60000;0,61991;192,54684;0,00162
18,70000;0,62330;194,38303;0,00164
18,80000;0,62664;196,04687;0,00166
18,90000;0,63000;198,46589;0,00168
19,00000;0,63333;199,82578;0,00170
19,10000;0,63664;202,72420;0,00172
19,20000;0,63994;205,40329;0,00173
19,30000;0,64325;206,63159;0,00175
19,40000;0,64667;209,11640;0,00177
19,50000;0,65006;210,97765;0,00179
19,60000;0,65342;212,45976;0,00181
19,70000;0,65675;214,16433;0,00183
19,80000;0,66008;216,94368;0,00184
19,90000;0,66333;218,24720;0,00186
20,00000;0,66667;219,93297;0,00188
20,10000;0,67000;222,76873;0,00190
20,20000;0,67336;224,79605;0,00192
20,30000;0,67669;226,29383;0,00193
20,40000;0,68003;229,16719;0,00196
20,50000;0,68336;231,40132;0,00197
20,60000;0,68658;232,35388;0,00199
20,70000;0,68994;235,23977;0,00201
20,80000;0,69333;236,53700;0,00203
20,90000;0,69669;238,42959;0,00205
21,00000;0,70003;241,05227;0,00206
21,10000;0,70336;242,50303;0,00208
21,20000;0,70667;244,14810;0,00210
21,30000;0,70994;246,49503;0,00212
21,40000;0,71333;248,14322;0,00214
21,50000;0,71667;250,27080;0,00216
21,60000;0,72000;252,64593;0,00217
21,70000;0,72333;254,62001;0,00219
21,80000;0,72669;255,99245;0,00221
21,90000;0,72994;257,42440;0,00223
22,00000;0,73328;259,64915;0,00225
22,10000;0,73661;261,80807;0,00227
22,20000;0,74000;264,10175;0,00228
22,30000;0,74333;264,82556;0,00230
22,40000;0,74669;267,38243;0,00232
22,50000;0,75003;270,33726;0,00234
22,60000;0,75330;271,29923;0,00236
22,70000;0,75667;273,81536;0,00237
22,80000;0,76003;275,45413;0,00239
22,90000;0,76336;277,46893;0,00241
23,00000;0,76669;279,15472;0,00243
23,10000;0,77000;281,94659;0,00245
23,20000;0,77328;283,23131;0,00247
23,30000;0,77658;284,23714;0,00249
23,40000;0,77997;286,91622;0,00250
23,50000;0,78333;288,49859;0,00252
23,60000;0,78672;291,13381;0,00254
23,70000;0,79006;292,26812;0,00256
23,80000;0,79339;294,54925;0,00258
23,90000;0,79667;296,32277;0,00260
24,00000;0,80000;299,05511;0,00262
24,10000;0,80339;300,45889;0,00264
24,20000;0,80675;302,07885;0,00266
24,30000;0,81008;304,85508;0,00267
24,40000;0,81342;305,91730;0,00269
24,50000;0,81672;307,75035;0,00271
24,60000;0,81997;309,98450;0,00273
24,70000;0,82330;311,71415;0,00275
24,80000;0,82664;313,22446;0,00277
24,90000;0,82997;315,30818;0,00279
25,00000;0,83330;316,78716;0,00281
25,10000;0,83664;319,56339;0,00283
25,20000;0,83991;320,74153;0,00284
25,30000;0,84322;322,59966;0,00286
25,40000;0,84664;324,27919;0,00288
25,50000;0,85003;326,26891;0,00290
25,60000;0,85339;327,63509;0,00292
25,70000;0,85675;330,13243;0,00294
25,80000;0,86006;331,94355;0,00295
25,90000;0,86330;333,43819;0,00297
26,00000;0,86664;335,17410;0,00299
26,10000;0,87000;337,81559;0,00301
26,20000;0,87333;339,26636;0,00303
26,30000;0,87667;340,52287;0,00305
26,40000;0,88000;342,65360;0,00306
26,50000;0,88333;344,78744;0,00308
26,60000;0,88661;346,22257;0,00310
26,70000;0,88997;348,70110;0,00312
26,80000;0,89336;349,95761;0,00314
26,90000;0,89669;350,68144;0,00315
27,00000;0,90003;353,85245;0,00317
27,10000;0,90336;355,49123;0,00319
27,20000;0,90667;356,56288;0,00321
27,30000;0,90994;359,34849;0,00323
27,40000;0,91330;360,46712;0,00325
27,50000;0,91667;362,43177;0,00326
27,60000;0,92000;364,91659;0,00328
27,70000;0,92336;366,54910;0,00330
27,80000;0,92667;367,63325;0,00332
27,90000;0,92994;369,01822;0,00334
28,00000;0,93328;370,93589;0,00336
28,10000;0,93664;373,13241;0,00338
28,20000;0,94000;374,57694;0,00339
28,30000;0,94333;375,90549;0,00341
28,40000;0,94669;377,71349;0,00343
28,50000;0,95006;380,84690;0,00345
28,60000;0,95336;381,87469;0,00347
28,70000;0,95672;384,03361;0,00348
28,80000;0,96008;385,21490;0,00350
28,90000;0,96342;387,05110;0,00352
29,00000;0,96672;388,62093;0,00354
29,10000;0,97003;390,72344;0,00355
29,20000;0,97330;391,40969;0,00357
29,30000;0,97655;393,28975;0,00359
29,40000;0,97994;395,97196;0,00361
29,50000;0,98333;396,85871;0,00363
29,60000;0,98667;398,32829;0,00364
29,70000;0,99003;400,24905;0,00366
29,80000;0,99336;401,95053;0,00368
29,90000;0,99667;403,12870;0,00370
30,00000;0,99997;405,68872;0,00372
30,10000;1,00336;406,88883;0,00373
30,20000;1,00672;408,93806;0,00375
30,30000;1,01006;409,40181;0,00377
30,40000;1,01336;411,51061;0,00378
30,50000;1,01667;412,63863;0,00380
30,60000;1,01991;414,31501;0,00382
30,70000;1,02325;416,42380;0,00383
30,80000;1,02664;417,27927;0,00385
30,90000;1,02997;419,48203;0,00387
31,00000;1,03333;420,01475;0,00388
31,10000;1,03664;421,62216;0,00390
31,20000;1,03994;423,20141;0,00391
31,30000;1,04325;424,82140;0,00393
31,40000;1,04661;426,29098;0,00395
31,50000;1,04997;428,44363;0,00396
31,60000;1,05336;429,63433;0,00398
31,70000;1,05672;432,14420;0,00400
31,80000;1,06008;431,93740;0,00402
31,90000;1,06333;433,53233;0,00403
32,00000;1,06664;435,29016;0,00405
32,10000;1,07000;437,40212;0,00406
32,20000;1,07333;437,50550;0,00408
32,30000;1,07667;439,30095;0,00410
32,40000;1,08003;441,44737;0,00411
32,50000;1,08336;442,59420;0,00413
32,60000;1,08664;444,83147;0,00415
32,70000;1,09000;446,58617;0,00416
32,80000;1,09339;447,51680;0,00418
32,90000;1,09678;448,82344;0,00420
33,00000;1,10014;451,16097;0,00421
33,10000;1,10345;452,02267;0,00423
33,20000;1,10669;453,71158;0,00425
33,30000;1,10997;455,10596;0,00426
33,40000;1,11330;456,54732;0,00428
33,50000;1,11667;458,25504;0,00430
33,60000;1,11997;460,51424;0,00432
33,70000;1,12330;461,33208;0,00433
33,80000;1,12661;462,78285;0,00435
33,90000;1,12988;463,86076;0,00436
34,00000;1,13322;466,19200;0,00438
34,10000;1,13661;467,43597;0,00440
34,20000;1,13997;469,28157;0,00441
34,30000;1,14330;469,70770;0,00443
34,40000;1,14667;471,72876;0,00445
34,50000;1,15003;472,65938;0,00447
34,60000;1,15333;475,22881;0,00448
34,70000;1,15669;476,74854;0,00450
34,80000;1,16006;477,72927;0,00452
34,90000;1,16339;479,22707;0,00454
35,00000;1,16669;480,93479;0,00455
35,10000;1,17003;483,04358;0,00457
35,20000;1,17330;483,53239;0,00458
35,30000;1,17658;485,58167;0,00460
35,40000;1,17997;487,26746;0,00461
35,50000;1,18333;486,98857;0,00463
35,60000;1,18667;490,47922;0,00465
35,70000;1,19003;491,11526;0,00467
35,80000;1,19336;492,78541;0,00469
35,90000;1,19667;493,73796;0,00470
36,00000;1,20000;496,05356;0,00472
36,10000;1,20339;497,60146;0,00474
36,20000;1,20675;499,10867;0,00475
36,30000;1,21006;501,20177;0,00477
36,40000;1,21336;502,06347;0,00479
36,50000;1,21667;502,97529;0,00481
36,60000;1,21991;505,22508;0,00482
36,70000;1,22327;506,70095;0,00484
36,80000;1,22664;507,82897;0,00485
36,90000;1,23000;509,15754;0,00487
37,00000;1,23333;510,98433;0,00489
37,10000;1,23667;512,71399;0,00490
37,20000;1,23997;514,44676;0,00492
37,30000;1,24327;515,71582;0,00494
37,40000;1,24672;516,77804;0,00496
37,50000;1,25008;518,10346;0,00497
37,60000;1,25342;519,76107;0,00499
37,70000;1,25675;521,34655;0,00501
37,80000;1,26003;522,85064;0,00502
37,90000;1,26327;524,16665;0,00504
38,00000;1,26658;526,12820;0,00506
38,10000;1,26994;527,41286;0,00508
38,20000;1,27327;528,39993;0,00509
38,30000;1,27664;529,78802;0,00511
38,40000;1,28000;532,26654;0,00513
38,50000;1,28336;533,11884;0,00514
38,60000;1,28664;535,61931;0,00516
38,70000;1,29000;536,44655;0,00518
38,80000;1,29339;538,25765;0,00520
38,90000;1,29675;539,15381;0,00521
39,00000;1,30008;540,50433;0,00523
39,10000;1,30339;541,89246;0,00525
39,20000;1,30667;543,89783;0,00526
39,30000;1,30997;545,13556;0,00528
39,40000;1,31330;547,32580;0,00530
39,50000;1,31667;547,62033;0,00532
39,60000;1,32000;549,86388;0,00533
39,70000;1,32333;550,81332;0,00535
39,80000;1,32667;552,42390;0,00537
39,90000;1,32991;554,32273;0,00538
40,00000;1,33322;555,79231;0,00540
40,10000;1,33661;557,73193;0,00542
40,20000;1,33994;558,28025;0,00544
40,30000;1,34330;560,18541;0,00545
40,40000;1,34667;561,81476;0,00547
40,50000;1,35003;563,39088;0,00549
40,60000;1,35333;564,71005;0,00550
40,70000;1,35672;567,09461;0,00552
40,80000;1,36006;567,41731;0,00554
40,90000;1,36339;569,31931;0,00556
41,00000;1,36672;570,38781;0,00557
41,10000;1,37003;572,40259;0,00559
41,20000;1,37330;573,79073;0,00561
41,30000;1,37661;575,11614;0,00563
41,40000;1,38000;577,08393;0,00564
41,50000;1,38342;578,14620;0,00566
41,60000;1,38675;580,75320;0,00568
41,70000;1,39011;582,04727;0,00570
41,80000;1,39342;582,89957;0,00571
41,90000;1,39667;584,30647;0,00573
42,00000;1,39997;585,70085;0,00575
42,10000;1,40330;588,43321;0,00577
42,20000;1,40667;588,04466;0,00578
42,30000;1,41000;590,28505;0,00580
42,40000;1,41330;591,66690;0,00582
42,50000;1,41661;593,08950;0,00583
42,60000;1,41991;594,99773;0,00585
42,70000;1,42327;595,89078;0,00587
42,80000;1,42664;597,82094;0,00589
42,90000;1,43000;599,62897;0,00591
43,00000;1,43333;600,35279;0,00592
43,10000;1,43664;602,69032;0,00594
43,20000;1,43997;603,87789;0,00595
43,30000;1,44325;605,01532;0,00597
43,40000;1,44667;606,15903;0,00599
43,50000;1,45006;607,67243;0,00601
43,60000;1,45339;609,82513;0,00603
43,70000;1,45672;610,84349;0,00604
43,80000;1,46006;612,91466;0,00606
43,90000;1,46330;613,72621;0,00608
44,00000;1,46661;615,66895;0,00609
44,10000;1,47000;617,31087;0,00611
44,20000;1,47333;618,22897;0,00613
44,30000;1,47667;620,30954;0,00615
44,40000;1,47997;621,85121;0,00617
44,50000;1,48330;623,12339;0,00619
44,60000;1,48661;625,19144;0,00620
44,70000;1,49000;625,87140;0,00622
44,80000;1,49336;627,73577;0,00624
44,90000;1,49672;628,34681;0,00626
45,00000;1,50006;630,76895;0,00627
45,10000;1,50339;632,07555;0,00629
45,20000;1,50666;633,47309;0,00631
45,30000;1,50994;634,75464;0,00633
45,40000;1,51330;636,48429;0,00634
45,50000;1,51666;637,86302;0,00636
45,60000;1,52000;639,65218;0,00638
45,70000;1,52336;640,17861;0,00639
45,80000;1,52669;641,61997;0,00641
45,90000;1,52994;643,26818;0,00643
46,00000;1,53330;645,36757;0,00645
46,10000;1,53664;646,71179;0,00646
46,20000;1,54000;647,49201;0,00648
46,30000;1,54333;649,24676;0,00650
46,40000;1,54669;651,71900;0,00651
46,50000;1,55003;652,17651;0,00653
46,60000;1,55327;653,75576;0,00655
46,70000;1,55664;654,89318;0,00657
46,80000;1,56003;655,73920;0,00659
46,90000;1,56336;657,76655;0,00660
47,00000;1,56669;659,30504;0,00662
47,10000;1,57000;662,01547;0,00664
47,20000;1,57330;662,09063;0,00666
47,30000;1,57661;663,51634;0,00667
47,40000;1,58000;666,37406;0,00669
47,50000;1,58339;666,64978;0,00671
47,60000;1,58675;668,53613;0,00673
47,70000;1,59006;669,96496;0,00674
47,80000;1,59336;671,01154;0,00676
47,90000;1,59664;672,46854;0,00678
48,00000;1,59997;674,77478;0,00680
48,10000;1,60333;675,98424;0,00681
48,20000;1,60669;676,92115;0,00683
48,30000;1,61003;677,62304;0,00685
48,40000;1,61333;680,55908;0,00687
48,50000;1,61664;681,41134;0,00688
48,60000;1,61991;683,66742;0,00690
48,70000;1,62325;684,97718;0,00692
48,80000;1,62664;685,68219;0,00693
48,90000;1,62997;687,76282;0,00695
49,00000;1,63333;688,31742;0,00697
49,10000;1,63664;690,51711;0,00699
49,20000;1,63991;690,83981;0,00700
49,30000;1,64322;692,26241;0,00702
49,40000;1,64661;694,92897;0,00704
49,50000;1,65003;695,54308;0,00706
49,60000;1,65342;697,40438;0,00708
49,70000;1,65675;698,46972;0,00709
49,80000;1,66011;700,85428;0,00711
49,90000;1,66336;701,61880;0,00713
50,00000;1,66669;702,62151;0,00715
50,10000;1,67006;704,54543;0,00716
50,20000;1,67339;706,47248;0,00718
50,30000;1,67672;707,45638;0,00720
50,40000;1,68006;709,40852;0,00722
50,50000;1,68336;710,14487;0,00723
50,60000;1,68661;712,07192;0,00725
50,70000;1,68994;712,79262;0,00727
50,80000;1,69333;714,55673;0,00729
50,90000;1,69669;715,84145;0,00730
51,00000;1,70003;717,37994;0,00732
51,10000;1,70336;718,74927;0,00734
51,20000;1,70664;719,78956;0,00735
51,30000;1,70994;721,68214;0,00737
51,40000;1,71333;721,80433;0,00739
51,50000;1,71666;723,63112;0,00740
51,60000;1,72000;725,94048;0,00742
51,70000;1,72333;726,01251;0,00744
51,80000;1,72666;727,43823;0,00745
51,90000;1,72994;728,52243;0,00747
52,00000;1,73325;730,65627;0,00749
52,10000;1,73661;731,35188;0,00750
52,20000;1,73997;733,10034;0,00752
52,30000;1,74333;734,25970;0,00754
52,40000;1,74669;735,27494;0,00755
52,50000;1,75003;736,58158;0,00757
52,60000;1,75330;738,12325;0,00759
52,70000;1,75666;738,44283;0,00760
52,80000;1,76003;740,54538;0,00762
52,90000;1,76336;741,85827;0,00764
53,00000;1,76669;743,29022;0,00765
53,10000;1,77003;744,58122;0,00767
53,20000;1,77330;746,01006;0,00769
53,30000;1,77661;747,23838;0,00770
53,40000;1,77997;748,40086;0,00772
53,50000;1,78336;749,45367;0,00774
53,60000;1,78672;750,67258;0,00776
53,70000;1,79005;752,76573;0,00777
53,80000;1,79339;754,11624;0,00779
53,90000;1,79666;754,45464;0,00780
54,00000;1,80000;756,07775;0,00782
54,10000;1,80339;758,52494;0,00784
54,20000;1,80672;758,67851;0,00786
54,30000;1,81005;760,40500;0,00787
54,40000;1,81339;761,72417;0,00789
54,50000;1,81669;762,24748;0,00791
54,60000;1,81994;764,85761;0,00792
54,70000;1,82327;765,37463;0,00794
54,80000;1,82664;767,00086;0,00796
54,90000;1,82997;768,27304;0,00797
55,00000;1,83330;769,23189;0,00799
55,10000;1,83661;771,02105;0,00801
55,20000;1,83991;771,69160;0,00802
55,30000;1,84322;773,40873;0,00804
55,40000;1,84664;774,55556;0,00806
55,50000;1,85005;775,22299;0,00808
55,60000;1,85339;777,04662;0,00809
55,70000;1,85675;779,13036;0,00811
55,80000;1,86005;779,43746;0,00813
55,90000;1,86333;781,14518;0,00814
56,00000;1,86664;782,27315;0,00816
56,10000;1,87000;784,17826;0,00818
56,20000;1,87336;784,55117;0,00819
56,30000;1,87666;786,23695;0,00821
56,40000;1,88000;787,49349;0,00823
56,50000;1,88333;789,01313;0,00824
56,60000;1,88661;790,70833;0,00826
56,70000;1,88997;791,82694;0,00828
56,80000;1,89333;792,53512;0,00830
56,90000;1,89672;794,28675;0,00831
57,00000;1,90005;795,95372;0,00833
57,10000;1,90339;797,30107;0,00835
57,20000;1,90666;798,25986;0,00837
57,30000;1,90994;799,51324;0,00838
57,40000;1,91330;801,10189;0,00840
57,50000;1,91666;801,56252;0,00841
57,60000;1,92000;804,73358;0,00843
57,70000;1,92333;804,80566;0,00845
57,80000;1,92666;806,65750;0,00846
57,90000;1,92991;807,70096;0,00848
58,00000;1,93325;808,59084;0,00850
58,10000;1,93661;811,40772;0,00851
58,20000;1,93997;812,01876;0,00853
58,30000;1,94333;812,39166;0,00855
58,40000;1,94669;814,04923;0,00857
58,50000;1,95005;815,57520;0,00858
58,60000;1,95339;817,29861;0,00860
58,70000;1,95675;818,31068;0,00862
58,80000;1,96008;819,56098;0,00864
58,90000;1,96342;821,33450;0,00865
59,00000;1,96672;821,74493;0,00867
59,10000;1,97000;823,65321;0,00868
59,20000;1,97327;824,57438;0,00870
59,30000;1,97655;826,11917;0,00872
59,40000;1,97994;827,33808;0,00874
59,50000;1,98330;828,59145;0,00875
59,60000;1,98666;829,84166;0,00877
59,70000;1,99000;831,80945;0,00879
59,80000;1,99336;832,96886;0,00881
59,90000;1,99664;834,01538;0,00882
60,00000;1,99997;834,80505;0,00884
60,10000;2,00336;837,11436;0,00886
60,20000;2,00669;837,99483;0,00887
60,30000;2,01003;839,17622;0,00889
60,40000;2,01336;840,06917;0,00891
60,50000;2,01666;841,62969;0,00892
60,60000;2,01994;843,51283;0,00894
60,70000;2,02327;843,85127;0,00896
60,80000;2,02664;845,94442;0,00898
60,90000;2,03000;846,59616;0,00899
61,00000;2,03333;848,05004;0,00901
61,10000;2,03666;850,81058;0,00902
61,20000;2,03994;850,43767;0,00904
61,30000;2,04325;852,48379;0,00906
61,40000;2,04661;853,27663;0,00908
61,50000;2,05000;854,29186;0,00909
61,60000;2,05336;856,35046;0,00911
61,70000;2,05675;857,24974;0,00913
61,80000;2,06008;858,65352;0,00914
61,90000;2,06336;859,04840;0,00916
62,00000;2,06664;860,54616;0,00918
62,10000;2,06997;862,64554;0,00920
62,20000;2,07333;863,72029;0,00921
62,30000;2,07666;865,10526;0,00923
62,40000;2,08003;866,28031;0,00925
62,50000;2,08336;866,94770;0,00927
62,60000;2,08664;869,62990;0,00928
62,70000;2,09000;870,34432;0,00930
62,80000;2,09339;871,82336;0,00932
62,90000;2,09675;872,96078;0,00934
63,00000;2,10011;873,83809;0,00935
63,10000;2,10342;875,78082;0,00937
63,20000;2,10669;876,44830;0,00939
63,30000;2,10994;877,25352;0,00940
63,40000;2,11330;878,90178;0,00942
63,50000;2,11666;879,98901;0,00944
63,60000;2,11997;882,82162;0,00945
63,70000;2,12330;883,02223;0,00947
63,80000;2,12664;884,02173;0,00949
63,90000;2,12988;885,75771;0,00951
64,00000;2,13322;886,81681;0,00952
64,10000;2,13661;888,52132;0,00954
64,20000;2,14000;889,52091;0,00956
64,30000;2,14333;890,37325;0,00957
64,40000;2,14672;891,41978;0,00959
64,50000;2,15005;893,04289;0,00961
64,60000;2,15336;894,50935;0,00963
64,70000;2,15669;895,38358;0,00964
64,80000;2,16005;896,96599;0,00966
64,90000;2,16339;897,98113;0,00968
65,00000;2,16669;898,94943;0,00970
65,10000;2,17000;901,11149;0,00971
65,20000;2,17330;901,39033;0,00973
65,30000;2,17661;903,35496;0,00975
65,40000;2,17997;904,88102;0,00977
65,50000;2,18333;905,77714;0,00978
65,60000;2,18666;907,28747;0,00980
65,70000;2,19003;908,20240;0,00982
65,80000;2,19336;910,02602;0,00984
65,90000;2,19664;910,91283;0,00985
66,00000;2,20000;912,43256;0,00987
66,10000;2,20339;914,12775;0,00989
66,20000;2,20672;915,60353;0,00991
66,30000;2,21005;916,07980;0,00992
66,40000;2,21336;917,32070;0,00994
66,50000;2,21666;917,88471;0,00996
66,60000;2,21991;919,95280;0,00997
66,70000;2,22327;920,81754;0,00999
66,80000;2,22664;923,08614;0,01001
66,90000;2,23000;923,54678;0,01003
67,00000;2,23333;925,27336;0,01004
67,10000;2,23666;927,21600;0,01006
67,20000;2,23997;927,57326;0,01008
67,30000;2,24333;928,73890;0,01009
67,40000;2,24675;929,72592;0,01012
67,50000;2,25011;931,77827;0,01013
67,60000;2,25344;933,12571;0,01015
67,70000;2,25675;933,97172;0,01017
67,80000;2,26003;935,57602;0,01019
67,90000;2,26330;935,90813;0,01020
68,00000;2,26661;937,43410;0,01022
68,10000;2,26994;939,00086;0,01024
68,20000;2,27330;940,04432;0,01025
68,30000;2,27666;941,29136;0,01027
68,40000;2,27997;942,53849;0,01029
68,50000;2,28333;943,23410;0,01031
68,60000;2,28658;945,39933;0,01032
68,70000;2,28997;946,15761;0,01034
68,80000;2,29333;948,08778;0,01036
68,90000;2,29672;948,24135;0,01038
69,00000;2,30008;950,37827;0,01040
69,10000;2,30339;951,65363;0,01041
69,20000;2,30666;952,43389;0,01043
69,30000;2,30994;954,42357;0,01045
69,40000;2,31333;956,05291;0,01046
69,50000;2,31666;956,09678;0,01048
69,60000;2,32000;958,30588;0,01050
69,70000;2,32333;958,81978;0,01052
69,80000;2,32664;960,33951;0,01053
69,90000;2,32991;961,70874;0,01055
70,00000;2,33322;962,69585;0,01057
70,10000;2,33661;963,84268;0,01059
70,20000;2,33994;965,97336;0,01060
70,30000;2,34327;966,71283;0,01062
70,40000;2,34664;967,56201;0,01064
70,50000;2,35003;968,10721;0,01066
70,60000;2,35333;970,61088;0,01068
70,70000;2,35672;971,44749;0,01069
70,80000;2,36008;973,80383;0,01071
70,90000;2,36342;973,97929;0,01073
71,00000;2,36675;975,18563;0,01075
71,10000;2,37003;976,38266;0,01076
71,20000;2,37333;977,03123;0,01078
71,30000;2,37661;978,61048;0,01080
71,40000;2,38000;980,98880;0,01082
71,50000;2,38339;981,20179;0,01084
71,60000;2,38675;983,52367;0,01085
71,70000;2,39008;984,72694;0,01087
71,80000;2,39342;985,87377;0,01089
71,90000;2,39666;986,48481;0,01091
72,00000;2,39997;987,73185;0,01093
72,10000;2,40333;989,27040;0,01094
72,20000;2,40666;990,50812;0,01096
72,30000;2,41000;991,43246;0,01098
72,40000;2,41333;993,09003;0,01099
72,50000;2,41664;994,48441;0,01101
72,60000;2,41991;996,12633;0,01103
72,70000;2,42327;996,49606;0,01105
72,80000;2,42664;998,52653;0,01107
72,90000;2,43000;998,40751;0,01108
73,00000;2,43333;1000,15905;0,01110
73,10000;2,43666;1001,54718;0,01112
73,20000;2,43997;1003,55251;0,01114
73,30000;2,44330;1004,27950;0,01115
73,40000;2,44669;1005,89320;0,01117
73,50000;2,45005;1006,92408;0,01119
73,60000;2,45339;1008,46579;0,01121
73,70000;2,45672;1009,34627;0,01123
73,80000;2,46003;1010,73124;0,01125
73,90000;2,46330;1012,05353;0,01126
74,00000;2,46661;1012,87132;0,01128
74,10000;2,46994;1014,49136;0,01130
74,20000;2,47330;1015,01774;0,01132
74,30000;2,47661;1017,20486;0,01133
74,40000;2,47997;1018,42070;0,01135
74,50000;2,48330;1019,73359;0,01137
74,60000;2,48661;1021,76405;0,01139
74,70000;2,49000;1022,17449;0,01141
74,80000;2,49339;1024,16733;0,01143
74,90000;2,49672;1024,70005;0,01144
75,00000;2,50008;1025,85312;0,01147
75,10000;2,50339;1026,60833;0,01148
75,20000;2,50666;1028,74525;0,01150
75,30000;2,50994;1029,71354;0,01152
75,40000;2,51333;1030,83216;0,01153
75,50000;2,51669;1032,34556;0,01155
75,60000;2,52003;1033,78380;0,01157
75,70000;2,52339;1034,67377;0,01159
75,80000;2,52672;1035,55731;0,01161
75,90000;2,53000;1037,02378;0,01163
76,00000;2,53330;1038,48400;0,01164
76,10000;2,53666;1039,46477;0,01166
76,20000;2,54000;1041,15363;0,01168
76,30000;2,54333;1042,06866;0,01170
76,40000;2,54666;1043,09637;0,01171
76,50000;2,55003;1043,81079;0,01173
76,60000;2,55330;1046,05118;0,01175
76,70000;2,55664;1046,72173;0,01177
76,80000;2,56003;1047,95946;0,01179
76,90000;2,56336;1049,36007;0,01180
77,00000;2,56669;1050,07449;0,01182
77,10000;2,57000;1051,77592;0,01184
77,20000;2,57327;1053,12020;0,01186
77,30000;2,57658;1053,64667;0,01187
77,40000;2,57997;1055,13185;0,01189
77,50000;2,58336;1056,60148;0,01191
77,60000;2,58672;1058,34678;0,01193
77,70000;2,59003;1059,00168;0,01195
77,80000;2,59336;1060,89422;0,01197
77,90000;2,59664;1061,84995;0,01199
78,00000;2,59997;1062,94034;0,01200
78,10000;2,60336;1064,50394;0,01202
78,20000;2,60669;1065,61314;0,01204
78,30000;2,61003;1066,76938;0,01206
78,40000;2,61336;1068,01968;0,01208
78,50000;2,61666;1068,94718;0,01210
78,60000;2,61991;1070,85230;0,01211
78,70000;2,62330;1071,68267;0,01213
78,80000;2,62664;1073,01744;0,01215
78,90000;2,63000;1073,76948;0,01217
79,00000;2,63336;1075,23594;0,01219
79,10000;2,63666;1076,68983;0,01220
79,20000;2,63994;1077,43563;0,01222
79,30000;2,64322;1078,67960;0,01224
79,40000;2,64663;1079,85456;0,01226
79,50000;2,65005;1081,78481;0,01228
79,60000;2,65342;1082,01979;0,01230
79,70000;2,65675;1082,94729;0,01231
79,80000;2,66008;1084,66130;0,01233
79,90000;2,66333;1085,62009;0,01235
80,00000;2,66664;1086,90169;0,01237
80,10000;2,67000;1088,81304;0,01239
80,20000;2,67336;1090,07582;0,01240
80,30000;2,67669;1090,69627;0,01242
80,40000;2,68003;1092,10312;0,01244
80,50000;2,68336;1093,18737;0,01246
80,60000;2,68661;1094,32163;0,01248
80,70000;2,68997;1095,76611;0,01250
80,80000;2,69333;1097,36416;0,01252
80,90000;2,69669;1098,61130;0,01253
81,00000;2,70003;1100,05261;0,01255
81,10000;2,70336;1101,05854;0,01257
81,20000;2,70666;1102,22101;0,01259
81,30000;2,70994;1102,95732;0,01260
81,40000;2,71330;1104,26713;0,01263
81,50000;2,71666;1105,63645;0,01265
81,60000;2,72000;1107,01825;0,01266
81,70000;2,72336;1107,98646;0,01268
81,80000;2,72669;1109,69422;0,01270
81,90000;2,72997;1110,55905;0,01272
82,00000;2,73327;1111,58369;0,01274
82,10000;2,73661;1112,50803;0,01276
82,20000;2,74000;1113,51702;0,01277
82,30000;2,74333;1115,47224;0,01279
82,40000;2,74669;1115,95169;0,01281
82,50000;2,75003;1118,22030;0,01283
82,60000;2,75330;1119,00680;0,01285
82,70000;2,75666;1120,76150;0,01287
82,80000;2,76003;1121,35680;0,01289
82,90000;2,76336;1121,72654;0,01290
83,00000;2,76669;1123,97010;0,01292
83,10000;2,77003;1125,04177;0,01294
83,20000;2,77330;1125,89402;0,01296
83,30000;2,77658;1126,84658;0,01298
83,40000;2,77997;1128,43523;0,01300
83,50000;2,78336;1129,82644;0,01302
83,60000;2,78672;1131,36815;0,01304
83,70000;2,79005;1131,38063;0,01306
83,80000;2,79336;1133,74013;0,01307
83,90000;2,79666;1134,65507;0,01309
84,00000;2,80000;1135,74238;0,01311
84,10000;2,80339;1136,82654;0,01313
84,20000;2,80675;1138,18329;0,01315
84,30000;2,81008;1139,13901;0,01317
84,40000;2,81342;1140,09157;0,01319
84,50000;2,81672;1141,32296;0,01320
84,60000;2,81997;1142,44167;0,01322
84,70000;2,82330;1143,75139;0,01324
84,80000;2,82663;1144,80741;0,01326
84,90000;2,82994;1146,27378;0,01328
85,00000;2,83327;1147,35169;0,01330
85,10000;2,83661;1148,55180;0,01332
85,20000;2,83994;1149,84596;0,01333
85,30000;2,84322;1150,83605;0,01335
85,40000;2,84663;1151,58185;0,01337
85,50000;2,85003;1153,34596;0,01339
85,60000;2,85339;1155,07245;0,01341
85,70000;2,85675;1155,53308;0,01343
85,80000;2,86005;1157,55415;0,01345
85,90000;2,86330;1158,05864;0,01346
86,00000;2,86663;1158,84198;0,01348
86,10000;2,87000;1160,49955;0,01350
86,20000;2,87336;1161,91274;0,01352
86,30000;2,87669;1162,85281;0,01354
86,40000;2,88003;1164,37562;0,01356
86,50000;2,88336;1165,45036;0,01358
86,60000;2,88664;1167,02337;0,01360
86,70000;2,88997;1167,88819;0,01362
86,80000;2,89333;1168,83134;0,01363
86,90000;2,89672;1170,19126;0,01365
87,00000;2,90005;1171,17204;0,01367
87,10000;2,90336;1172,72623;0,01369
87,20000;2,90666;1173,41867;0,01371
87,30000;2,90997;1174,41509;0,01373
87,40000;2,91330;1175,90660;0,01375
87,50000;2,91666;1178,05619;0,01377
87,60000;2,92000;1178,50425;0,01378
87,70000;2,92333;1179,66048;0,01380
87,80000;2,92666;1180,78226;0,01382
87,90000;2,92994;1181,63135;0,01384
88,00000;2,93327;1183,00701;0,01386
88,10000;2,93663;1184,41079;0,01388
88,20000;2,93997;1185,48553;0,01390
88,30000;2,94330;1185,97746;0,01392
88,40000;2,94666;1188,51867;0,01394
88,50000;2,95005;1189,49004;0,01396
88,60000;2,95336;1189,78769;0,01397
88,70000;2,95672;1191,46099;0,01399
88,80000;2,96008;1192,13779;0,01401
88,90000;2,96339;1194,04290;0,01403
89,00000;2,96669;1195,46233;0,01405
89,10000;2,97003;1195,92920;0,01407
89,20000;2,97330;1197,13554;0,01409
89,30000;2,97658;1198,49239;0,01411
89,40000;2,97997;1199,47623;0,01413
89,50000;2,98333;1201,19341;0,01414
89,60000;2,98666;1202,28063;0,01416
89,70000;2,99002;1203,11417;0,01418
89,80000;2,99336;1204,46468;0,01420
89,90000;2,99666;1206,05333;0,01422
90,00000;3,00000;1207,15946;0,01424
90,10000;3,00339;1207,76100;0,01426
90,20000;3,00675;1209,93247;0,01428
90,30000;3,01008;1210,32735;0,01430
90,40000;3,01339;1211,23288;0,01432
90,50000;3,01669;1212,99382;0,01433
90,60000;3,01991;1213,21632;0,01435
90,70000;3,02324;1215,07756;0,01437
90,80000;3,02663;1216,08339;0,01439
90,90000;3,03000;1217,59996;0,01441
91,00000;3,03333;1218,39587;0,01443
91,10000;3,03663;1219,93441;0,01445
91,20000;3,03991;1220,25404;0,01447
91,30000;3,04322;1222,19985;0,01449
91,40000;3,04661;1223,14924;0,01450
91,50000;3,05000;1224,49035;0,01453
91,60000;3,05336;1225,37399;0,01454
91,70000;3,05672;1227,19454;0,01457
91,80000;3,06008;1227,65200;0,01458
91,90000;3,06336;1228,83022;0,01460
92,00000;3,06663;1230,47214;0,01462
92,10000;3,07000;1231,66908;0,01464
92,20000;3,07330;1232,41171;0,01466
92,30000;3,07663;1234,20088;0,01468
92,40000;3,08000;1234,95916;0,01470
92,50000;3,08333;1236,46632;0,01472
92,60000;3,08661;1237,40006;0,01474
92,70000;3,08997;1238,32449;0,01476
92,80000;3,09339;1239,61540;0,01478
92,90000;3,09678;1240,64637;0,01480
93,00000;3,10014;1241,59260;0,01482
93,10000;3,10344;1243,04341;0,01484
93,20000;3,10669;1244,29055;0,01486
93,30000;3,10997;1245,14280;0,01487
93,40000;3,11333;1245,71621;0,01489
93,50000;3,11666;1248,73370;0,01491
93,60000;3,12000;1249,11908;0,01493
93,70000;3,12330;1250,18451;0,01495
93,80000;3,12661;1251,33134;0,01497
93,90000;3,12988;1252,02378;0,01499
94,00000;3,13322;1252,71631;0,01501
94,10000;3,13661;1255,25435;0,01503
94,20000;3,13997;1255,97501;0,01505
94,30000;3,14333;1257,01847;0,01507
94,40000;3,14669;1258,89536;0,01509
94,50000;3,15005;1259,89188;0,01511
94,60000;3,15333;1261,06376;0,01513
94,70000;3,15669;1261,94106;0,01515
94,80000;3,16008;1263,03779;0,01517
94,90000;3,16339;1264,01233;0,01519
95,00000;3,16669;1265,05885;0,01521
95,10000;3,17000;1266,34669;0,01522
95,20000;3,17330;1266,76653;0,01524
95,30000;3,17661;1268,85343;0,01527
95,40000;3,17997;1269,82797;0,01528
95,50000;3,18333;1271,17215;0,01530
95,60000;3,18666;1272,27511;0,01532
95,70000;3,19000;1272,86110;0,01534
95,80000;3,19336;1273,67890;0,01536
95,90000;3,19666;1275,70312;0,01538
96,00000;3,20000;1276,38616;0,01540
96,10000;3,20336;1277,73667;0,01542
96,20000;3,20672;1279,18432;0,01544
96,30000;3,21002;1279,88933;0,01546
96,40000;3,21336;1280,55047;0,01548
96,50000;3,21669;1282,66243;0,01550
96,60000;3,21994;1283,90957;0,01552
96,70000;3,22330;1283,91581;0,01554
96,80000;3,22663;1286,31284;0,01556
96,90000;3,23000;1286,63247;0,01558
97,00000;3,23336;1287,64147;0,01560
97,10000;3,23666;1289,25517;0,01562
97,20000;3,23997;1290,36438;0,01564
97,30000;3,24330;1291,48616;0,01566
97,40000;3,24669;1292,45752;0,01568
97,50000;3,25011;1294,45661;0,01570
97,60000;3,25342;1294,91724;0,01572
97,70000;3,25675;1295,84474;0,01574
97,80000;3,26002;1296,13299;0,01576
97,90000;3,26327;1297,79689;0,01578
98,00000;3,26658;1298,97818;0,01579
98,10000;3,26994;1300,39761;0,01581
98,20000;3,27330;1301,32511;0,01583
98,30000;3,27663;1302,51897;0,01585
98,40000;3,28000;1303,84751;0,01588
98,50000;3,28336;1305,48002;0,01590
98,60000;3,28663;1306,22890;0,01592
98,70000;3,29000;1307,10630;0,01594
98,80000;3,29339;1307,96796;0,01595
98,90000;3,29675;1309,26836;0,01597
99,00000;3,30011;1310,00467;0,01599
99,10000;3,30339;1311,31448;0,01601
99,20000;3,30666;1312,99086;0,01603
99,30000;3,30994;1313,50160;0,01605
99,40000;3,31330;1314,95865;0,01607
99,50000;3,31666;1317,32123;0,01609
99,60000;3,31997;1317,21161;0,01611
99,70000;3,32330;1318,69679;0,01613
99,80000;3,32663;1319,48330;0,01615
99,90000;3,32991;1321,04373;0,01617
100,00000;3,33322;1322,15926;0,01619
100,10000;3,33658;1322,63554;0,01621
100,20000;3,33991;1323,45967;0,01623
100,30000;3,34327;1324,66918;0,01625
100,40000;3,34663;1326,06039;0,01627
100,50000;3,35005;1327,07562;0,01629
100,60000;3,35336;1328,63605;0,01631
100,70000;3,35672;1329,37869;0,01633
100,80000;3,36008;1330,38135;0,01635
100,90000;3,36342;1331,62225;0,01638
101,00000;3,36672;1332,64372;0,01639
101,10000;3,37002;1333,48973;0,01641
101,20000;3,37330;1334,83084;0,01643
101,30000;3,37661;1336,09362;0,01645
101,40000;3,38000;1337,19342;0,01647
101,50000;3,38341;1337,91417;0,01650
101,60000;3,38678;1339,72215;0,01652
101,70000;3,39011;1340,58380;0,01654
101,80000;3,39341;1341,49566;0,01655
101,90000;3,39666;1342,78350;0,01657
102,00000;3,39997;1343,50099;0,01659
102,10000;3,40333;1345,56592;0,01661
102,20000;3,40666;1346,59056;0,01664
102,30000;3,41000;1346,92900;0,01666
102,40000;3,41330;1348,52389;0,01668
102,50000;3,41663;1349,43258;0,01670
102,60000;3,41991;1350,36008;0,01671
102,70000;3,42324;1351,20926;0,01673
102,80000;3,42663;1352,93268;0,01676
102,90000;3,42997;1354,53697;0,01678
103,00000;3,43330;1354,23299;0,01680
103,10000;3,43663;1356,03789;0,01682
103,20000;3,43994;1356,80242;0,01683
103,30000;3,44324;1357,83330;0,01686
103,40000;3,44666;1359,36560;0,01688
103,50000;3,45005;1359,80425;0,01690
103,60000;3,45341;1361,09209;0,01692
103,70000;3,45675;1362,77471;0,01694
103,80000;3,46005;1363,64894;0,01696
103,90000;3,46330;1365,09342;0,01698
104,00000;3,46663;1365,77971;0,01700
104,10000;3,47000;1367,26489;0,01702
104,20000;3,47333;1368,48073;0,01704
104,30000;3,47663;1369,42388;0,01706
104,40000;3,47997;1369,88759;0,01708
104,50000;3,48333;1371,15037;0,01710
104,60000;3,48661;1371,73003;0,01712
104,70000;3,49000;1373,65712;0,01714
104,80000;3,49339;1374,53452;0,01716
104,90000;3,49672;1374,75384;0,01719
105,00000;3,50005;1375,81918;0,01721
105,10000;3,50339;1376,84382;0,01723
105,20000;3,50666;1379,03718;0,01725
105,30001;3,50994;1379,39444;0,01726
105,40001;3,51330;1380,94546;0,01729
105,50001;3,51666;1381,82286;0,01731
105,60001;3,52002;1383,11693;0,01733
105,70001;3,52336;1384,67113;0,01735
105,80001;3,52669;1384,72123;0,01737
105,90001;3,52997;1386,18769;0,01739
106,00001;3,53330;1387,18411;0,01741
106,10001;3,53666;1388,11162;0,01743
106,20001;3,54002;1389,01407;0,01745
106,30001;3,54333;1390,70610;0,01747
106,40001;3,54669;1391,21683;0,01749
106,50001;3,55000;1392,74281;0,01751
106,60001;3,55324;1394,06826;0,01754
106,70001;3,55661;1394,66990;0,01755
106,80001;3,55997;1396,42144;0,01758
106,90001;3,56336;1397,58391;0,01760
107,00001;3,56669;1398,33596;0,01762
107,10001;3,57000;1399,16316;0,01764
107,20001;3,57330;1400,84270;0,01766
107,30001;3,57661;1401,20620;0,01768
107,40001;3,58000;1402,29659;0,01770
107,50001;3,58341;1403,70978;0,01772
107,60001;3,58675;1404,64669;0,01774
107,70001;3,59005;1405,30784;0,01776
107,80001;3,59336;1406,93411;0,01779
107,90001;3,59666;1407,58269;0,01780
108,00001;3,59997;1408,67000;0,01782
108,10001;3,60336;1410,47491;0,01785
108,20001;3,60669;1411,67184;0,01787
108,30001;3,61000;1411,89434;0,01789
108,40001;3,61333;1413,27614;0,01791
108,50001;3,61666;1413,86837;0,01793
108,60001;3,61991;1415,46018;0,01795
108,70001;3,62324;1416,59444;0,01797
108,80001;3,62663;1417,82593;0,01799
108,90001;3,62997;1418,13923;0,01801
109,00001;3,63333;1419,54301;0,01803
109,10001;3,63666;1420,55508;0,01806
109,20001;3,63994;1421,67369;0,01808
109,30001;3,64322;1422,46652;0,01810
109,40001;3,64663;1423,36581;0,01812
109,50001;3,65005;1424,52829;0,01814
109,60001;3,65341;1426,16080;0,01816
109,70001;3,65675;1426,61510;0,01819
109,80001;3,66008;1427,75569;0,01821
109,90001;3,66333;1429,17512;0,01823
110,00001;3,66666;1430,35958;0,01825
110,10001;3,67002;1431,57225;0,01827
110,20001;3,67336;1432,26469;0,01830
110,30001;3,67672;1433,32696;0,01832
110,40001;3,68005;1434,33586;0,01834
110,50001;3,68336;1435,63943;0,01836
110,60001;3,68661;1436,82389;0,01838
110,70001;3,68997;1437,57276;0,01840
110,80001;3,69330;1438,71959;0,01842
110,90001;3,69669;1440,63095;0,01844
111,00001;3,70002;1440,90671;0,01846
111,10001;3,70336;1442,50160;0,01848
111,20001;3,70663;1443,73616;0,01851
111,30001;3,70994;1444,35661;0,01853
111,40001;3,71333;1444,75456;0,01855
111,50001;3,71669;1445,81674;0,01857
111,60001;3,72002;1446,85712;0,01859
111,70001;3,72336;1448,03841;0,01861
111,80001;3,72669;1449,09751;0,01863
111,90001;3,72997;1450,51694;0,01865
112,00001;3,73327;1450,65794;0,01867
112,10001;3,73661;1451,99904;0,01869
112,20001;3,73997;1453,65661;0,01872
112,30001;3,74333;1454,69373;0,01874
112,40001;3,74669;1455,37686;0,01876
112,50001;3,75005;1456,10692;0,01878
112,60001;3,75330;1457,46060;0,01880
112,70001;3,75666;1458,79230;0,01883
112,80001;3,76002;1459,22154;0,01885
112,90001;3,76339;1460,76633;0,01887
113,00001;3,76669;1462,00089;0,01889
113,10001;3,77000;1463,00988;0,01891
113,20001;3,77330;1464,15047;0,01893
113,30001;3,77661;1464,18177;0,01895
113,40001;3,77994;1466,19659;0,01897
113,50001;3,78333;1467,11152;0,01900
113,60001;3,78669;1468,21449;0,01902
113,70001;3,79005;1469,31438;0,01904
113,80001;3,79339;1469,98176;0,01906
113,90001;3,79666;1471,35416;0,01908
114,00001;3,80000;1472,88954;0,01910
114,10001;3,80336;1473,93616;0,01912
114,20001;3,80672;1474,75712;0,01914
114,30001;3,81005;1474,92317;0,01916
114,40001;3,81339;1476,15774;0,01919
114,50001;3,81669;1477,19178;0,01921
114,60001;3,81997;1478,37624;0,01923
114,70001;3,82333;1479,51050;0,01925
114,80001;3,82666;1480,60406;0,01927
114,90001;3,83000;1481,18688;0,01929
115,00001;3,83333;1482,36509;0,01931
115,10001;3,83663;1484,21060;0,01933
115,20001;3,83991;1485,10681;0,01935
115,30001;3,84322;1486,01858;0,01938
115,40001;3,84663;1486,28186;0,01940
115,50001;3,85002;1487,85478;0,01942
115,60001;3,85341;1488,76663;0,01944
115,70001;3,85675;1489,12072;0,01946
115,80001;3,86008;1490,45866;0,01949
115,90001;3,86333;1491,54281;0,01951
116,00001;3,86663;1492,23218;0,01953
116,10001;3,87000;1494,09035;0,01955
116,20001;3,87336;1495,48473;0,01957
116,30001;3,87666;1495,96725;0,01960
116,40001;3,88000;1497,17359;0,01962
116,50001;3,88336;1498,16377;0,01964
116,60001;3,88663;1499,02236;0,01966
116,70001;3,88997;1500,33841;0,01968
116,80001;3,89333;1501,47891;0,01971
116,90001;3,89669;1501,76091;0,01973
117,00001;3,90005;1503,55641;0,01975
117,10001;3,90336;1504,11418;0,01977
117,20001;3,90663;1504,71888;0,01979
117,30001;3,90994;1506,16653;0,01981
117,40001;3,91330;1506,66786;0,01984
117,50001;3,91666;1507,68943;0,01986
117,60001;3,92000;1509,28115;0,01988
117,70001;3,92333;1510,26193;0,01990
117,80001;3,92663;1510,82287;0,01992
117,90001;3,92991;1512,40211;0,01995
118,00001;3,93324;1513,31387;0,01997
118,10001;3,93661;1515,06551;0,01999
118,20001;3,93997;1515,38821;0,02001
118,30001;3,94333;1516,36275;0,02004
118,40001;3,94672;1517,00824;0,02006
118,50001;3,95008;1517,80406;0,02008
118,60001;3,95339;1519,17031;0,02010
118,70001;3,95678;1520,42368;0,02013
118,80001;3,96011;1521,58616;0,02015
118,90001;3,96341;1522,41020;0,02017
119,00001;3,96672;1522,71101;0,02019
119,10001;3,97000;1524,92635;0,02022
119,20001;3,97330;1525,41520;0,02024
119,30001;3,97658;1526,48054;0,02026
119,40001;3,97997;1527,41745;0,02028
119,50001;3,98333;1528,69904;0,02031
119,60001;3,98666;1529,46357;0,02033
119,70001;3,99002;1530,52891;0,02035
119,80001;3,99336;1532,10508;0,02037
119,90001;3,99666;1533,14844;0,02040
120,00001;3,99997;1533,96633;0,02042
120,10001;4,00333;1534,62430;0,02044
120,20001;4,00669;1535,45467;0,02046
120,30001;4,01002;1536,51061;0,02049
120,40001;4,01339;1536,57962;0,02051
120,50001;4,01669;1538,83882;0,02053
120,60001;4,01994;1539,96991;0,02055
120,70001;4,02327;1540,43995;0,02057
120,80001;4,02660;1541,67451;0,02060
120,90001;4,02997;1542,37011;0,02062
121,00001;4,03330;1542,59577;0,02065
121,10001;4,03663;1544,24710;0,02067
121,20001;4,03991;1545,08054;0,02069
121,30001;4,04319;1545,38453;0,02071
121,40001;4,04658;1546,86663;0,02074
121,50001;4,04999;1547,58422;0,02076
121,60001;4,05336;1549,72747;0,02078
121,70001;4,05675;1550,14414;0,02081
121,80001;4,06011;1551,19700;0,02083
121,90001;4,06339;1552,24670;0,02085
122,00001;4,06669;1553,33718;0,02088
122,10001;4,07002;1554,51531;0,02090
122,20001;4,07336;1554,79414;0,02092
122,30001;4,07669;1556,45804;0,02095
122,40001;4,08005;1557,42941;0,02097
122,50001;4,08339;1558,07175;0,02099
122,60001;4,08666;1560,09905;0,02101
122,70001;4,09000;1560,29332;0,02104
122,80001;4,09341;1561,18320;0,02106
122,90001;4,09678;1562,25804;0,02108
123,00001;4,10011;1562,35201;0,02111
123,10001;4,10341;1564,36358;0,02113
123,20001;4,10669;1564,48260;0,02115
123,30001;4,10994;1565,34743;0,02118
123,40001;4,11330;1566,44732;0,02120
123,50001;4,11666;1567,71634;0,02122
123,60001;4,11997;1568,63444;0,02124
123,70001;4,12330;1569,82206;0,02126
123,80001;4,12660;1570,28586;0,02129
123,90001;4,12988;1571,71469;0,02131
124,00001;4,13321;1572,30999;0,02134
124,10001;4,13660;1573,40355;0,02136
124,20001;4,13997;1574,06777;0,02138
124,30001;4,14333;1574,72901;0,02140
124,40001;4,14669;1576,07645;0,02143
124,50001;4,15005;1576,95059;0,02145
124,60001;4,15333;1578,22594;0,02148
124,70001;4,15669;1579,60150;0,02150
124,80001;4,16005;1580,08393;0,02152
124,90001;4,16336;1581,11807;0,02154
125,00001;4,16669;1582,35896;0,02157
125,10001;4,17000;1582,88218;0,02159
125,20001;4,17330;1583,47748;0,02161
125,30001;4,17658;1585,07861;0,02164
125,40001;4,17997;1585,18516;0,02166
125,50001;4,18333;1586,88985;0,02168
125,60001;4,18669;1587,72338;0,02171
125,70001;4,19002;1589,15222;0,02173
125,80001;4,19336;1589,63464;0,02175
125,90001;4,19666;1591,13239;0,02178
126,00001;4,20000;1591,98474;0,02180
126,10001;4,20339;1593,24128;0,02182
126,20001;4,20672;1593,67677;0,02185
126,30001;4,21005;1594,24078;0,02187
126,40001;4,21336;1595,41592;0,02189
126,50001;4,21666;1596,73188;0,02192
126,60001;4,21991;1597,19251;0,02194
126,70001;4,22327;1598,34567;0,02196
126,80001;4,22663;1599,00673;0,02199
126,90001;4,22999;1600,59221;0,02201
127,00001;4,23336;1600,52329;0,02203
127,10001;4,23666;1601,70775;0,02205
127,20001;4,23997;1602,97677;0,02208
127,30001;4,24330;1603,20252;0,02210
127,40001;4,24672;1604,72840;0,02213
127,50001;4,25011;1605,65898;0,02215
127,60001;4,25341;1607,05335;0,02217
127,70001;4,25675;1608,22850;0,02220
127,80001;4,26002;1608,37267;0,02222
127,90001;4,26330;1609,82329;0,02224
128,00001;4,26660;1610,44691;0,02227
128,10001;4,26994;1611,39015;0,02229
128,20001;4,27330;1612,14210;0,02231
128,30001;4,27663;1613,22635;0,02234
128,40001;4,27997;1614,14444;0,02236
128,50001;4,28333;1615,43842;0,02238
128,60001;4,28658;1615,59191;0,02241
128,70001;4,28997;1617,31225;0,02243
128,80001;4,29336;1617,90140;0,02246
128,90001;4,29672;1618,75989;0,02248
129,00001;4,30008;1619,90989;0,02250
129,10001;4,30341;1620,72144;0,02253
129,20001;4,30666;1621,76806;0,02255
129,30001;4,30994;1622,39149;0,02257
129,40001;4,31333;1623,25948;0,02260
129,50001;4,31666;1623,96766;0,02262
129,60001;4,31999;1625,55315;0,02264
129,70001;4,32333;1626,51204;0,02266
129,80001;4,32666;1626,90673;0,02269
129,90001;4,32994;1628,33557;0,02271
130,00001;4,33324;1628,56430;0,02274
130,10001;4,33660;1629,61408;0,02276
130,20001;4,33994;1630,48822;0,02278
130,30001;4,34330;1631,34057;0,02281
130,40001;4,34666;1633,24568;0,02283
130,50001;4,35005;1633,53086;0,02286
130,60001;4,35333;1634,85948;0,02288
130,70001;4,35669;1635,22605;0,02291
130,80001;4,36008;1636,39486;0,02293
130,90001;4,36339;1637,55100;0,02295
131,00001;4,36672;1637,54169;0,02298
131,10001;4,37002;1639,10836;0,02300
131,20001;4,37330;1639,67870;0,02303
131,30001;4,37660;1640,32727;0,02305
131,40001;4,37999;1641,77176;0,02307
131,50001;4,38341;1642,25437;0,02310
131,60001;4,38675;1644,34742;0,02312
131,70001;4,39011;1644,51972;0,02315
131,80001;4,39341;1644,83320;0,02317
131,90001;4,39666;1647,28351;0,02320
132,00001;4,39997;1647,42451;0,02322
132,10001;4,40333;1648,09506;0,02324
132,20001;4,40663;1649,19794;0,02327
132,30001;4,40997;1650,88065;0,02329
132,40001;4,41330;1650,38556;0,02332
132,50001;4,41660;1651,30999;0,02334
132,60001;4,41988;1652,72001;0,02336
132,70001;4,42327;1652,73882;0,02339
132,80001;4,42663;1654,53739;0,02341
132,90001;4,43002;1655,89415;0,02344
133,00001;4,43336;1655,71868;0,02346
133,10001;4,43669;1656,96889;0,02349
133,20001;4,43997;1658,37258;0,02351
133,30001;4,44330;1658,89282;0,02354
133,40001;4,44669;1659,18116;0,02356
133,50001;4,45005;1660,50643;0,02358
133,60001;4,45341;1661,36827;0,02361
133,70001;4,45675;1662,30518;0,02363
133,80001;4,46005;1663,01951;0,02366
133,90001;4,46330;1664,78362;0,02368
134,00001;4,46660;1665,06879;0,02371
134,10001;4,46997;1665,39773;0,02373
134,20001;4,47330;1666,36910;0,02376
134,30001;4,47663;1667,86388;0,02378
134,40001;4,47997;1668,98239;0,02381
134,50001;4,48330;1668,84139;0,02383
134,60001;4,48660;1670,80611;0,02385
134,70001;4,48999;1671,48914;0,02388
134,80001;4,49338;1672,11890;0,02391
134,90001;4,49675;1673,35663;0,02393
135,00001;4,50008;1673,45703;0,02395
135,10001;4,50339;1674,29037;0,02398
135,20001;4,50666;1675,64098;0,02400
135,30001;4,50994;1675,80713;0,02402
135,40001;4,51330;1676,69058;0,02405
135,50001;4,51666;1677,95029;0,02407
135,60001;4,51999;1679,12226;0,02410
135,70001;4,52336;1680,11859;0,02412
135,80001;4,52669;1680,63566;0,02415
135,90001;4,52997;1681,71972;0,02417
136,00001;4,53330;1682,42175;0,02420
136,10001;4,53663;1683,11112;0,02422
136,20001;4,53999;1683,59354;0,02425
136,30001;4,54333;1684,75304;0,02427
136,40001;4,54666;1685,26061;0,02430
136,50001;4,55002;1686,14108;0,02432
136,60001;4,55330;1687,41327;0,02435
136,70001;4,55666;1688,13709;0,02437
136,80001;4,56005;1688,97361;0,02440
136,90001;4,56339;1689,19936;0,02442
137,00001;4,56669;1690,53730;0,02445
137,10001;4,56999;1691,43341;0,02447
137,20001;4,57330;1691,80948;0,02450
137,30001;4,57660;1692,43608;0,02452
137,40001;4,57999;1694,12810;0,02455
137,50001;4,58338;1695,02124;0,02457
137,60001;4,58675;1696,17422;0,02460
137,70001;4,59005;1696,57860;0,02462
137,80001;4,59336;1696,74773;0,02465
137,90001;4,59663;1698,37400;0,02467
138,00001;4,59997;1699,17308;0,02470
138,10001;4,60333;1700,06603;0,02472
138,20001;4,60669;1700,57043;0,02475
138,30001;4,61002;1701,30990;0,02477
138,40001;4,61333;1701,84262;0,02480
138,50001;4,61666;1702,96766;0,02482
138,60001;4,61991;1704,14578;0,02485
138,70001;4,62330;1704,83515;0,02487
138,80001;4,62663;1705,89425;0,02490
138,90001;4,62999;1706,49886;0,02492
139,00001;4,63336;1707,67717;0,02495
139,10001;4,63666;1708,09701;0,02497
139,20001;4,63994;1708,57646;0,02499
139,30001;4,64321;1709,51337;0,02502
139,40001;4,64663;1710,61624;0,02504
139,50001;4,65005;1710,86695;0,02507
139,60001;4,65341;1712,22687;0,02510
139,70001;4,65675;1713,08219;0,02512
139,80001;4,66005;1713,47074;0,02515
139,90001;4,66333;1714,86512;0,02517
140,00001;4,66663;1715,87411;0,02520
140,10001;4,66999;1716,63240;0,02522
140,20001;4,67336;1717,67902;0,02525
140,30001;4,67672;1717,59762;0,02528
140,40001;4,68005;1718,78505;0,02530
140,50001;4,68338;1719,13598;0,02533
140,60001;4,68663;1720,27349;0,02535
140,70001;4,68999;1721,32310;0,02538
140,80001;4,69333;1722,05959;0,02541
140,90001;4,69669;1723,06541;0,02543
141,00001;4,70002;1723,62626;0,02546
141,10001;4,70336;1724,51623;0,02548
141,20001;4,70663;1725,28699;0,02550
141,30001;4,70994;1725,74446;0,02553
141,40001;4,71330;1727,12635;0,02556
141,50001;4,71669;1727,60263;0,02558
141,60001;4,72002;1728,48925;0,02561
141,70001;4,72336;1729,31030;0,02563
141,80001;4,72669;1730,06859;0,02566
141,90001;4,72997;1730,74547;0,02569
142,00001;4,73327;1731,33444;0,02571
142,10001;4,73660;1732,85734;0,02574
142,20001;4,73999;1733,40887;0,02576
142,30001;4,74333;1733,53106;0,02579
142,40001;4,74669;1734,94425;0,02581
142,50001;4,75002;1735,72432;0,02584
142,60001;4,75330;1736,47329;0,02586
142,70001;4,75666;1737,19395;0,02589
142,80001;4,76002;1738,19363;0,02592
142,90001;4,76336;1738,92677;0,02594
143,00001;4,76669;1739,55038;0,02597
143,10001;4,76999;1740,96040;0,02599
143,20001;4,77327;1740,97922;0,02602
143,30001;4,77655;1741,67473;0,02604
143,40001;4,77994;1742,51460;0,02607
143,50001;4,78333;1743,52042;0,02610
143,60001;4,78672;1744,61715;0,02612
143,70001;4,79005;1744,56686;0,02615
143,80001;4,79338;1746,10224;0,02617
143,90001;4,79666;1747,18015;0,02620
144,00001;4,79999;1747,26173;0,02623
144,10001;4,80338;1747,91962;0,02625
144,20001;4,80675;1749,12922;0,02628
144,30001;4,81008;1749,62748;0,02631
144,40001;4,81341;1750,65510;0,02633
144,50001;4,81672;1750,94344;0,02636
144,60001;4,81997;1752,84855;0,02638
144,70001;4,82330;1752,67626;0,02641
144,80001;4,82663;1753,62881;0,02644
144,90001;4,82997;1754,82258;0,02646
145,00001;4,83330;1754,95110;0,02649
145,10001;4,83660;1755,81276;0,02651
145,20001;4,83991;1756,79363;0,02654
145,30001;4,84321;1757,38577;0,02657
145,40001;4,84663;1758,23178;0,02659
145,50001;4,85002;1676,83475;0,02697
145,50801;4,85031;1337,02112;0,02824
145,51401;4,85051;1024,42428;0,02929
