Text Inputs : Specimen label;"1"
Dimension : Length;50,00000;mm
Dimension : Final length;100,00000;mm
Test : Rate 1;2,00000;mm/min
General : Unique Identifier;"{6198E00F-9C4D-4814-BF79-ED76AF08A136}"

Time;Extension;Load;Strain 1
(sec);(mm);(N);(mm/mm)
0,00000;0,00000;-1,63499;-0,00008
0,10000;0,00191;-0,75137;-0,00008
0,20000;0,00496;-0,81718;-0,00008
0,30000;0,00849;-0,48190;-0,00008
0,40000;0,01211;0,90934;-0,00008
0,50000;0,01573;4,23078;-0,00008
0,60000;0,01929;7,91568;-0,00005
0,70000;0,02285;10,59163;-0,00003
0,80000;0,02635;14,44888;0,00000
0,90000;0,02983;17,58230;0,00002
1,00000;0,03325;19,58143;0,00004
1,10000;0,03664;22,99373;0,00007
1,20000;0,03997;25,43466;0,00009
1,30000;0,04330;28,56496;0,00011
1,40000;0,04667;30,87115;0,00014
1,50000;0,05006;33,13036;0,00016
1,60000;0,05339;35,53997;0,00018
1,70000;0,05672;38,23470;0,00021
1,80000;0,06003;40,29650;0,00023
1,90000;0,06330;43,22312;0,00025
2,00000;0,06658;45,28805;0,00027
2,10000;0,06994;47,25271;0,00029
2,20000;0,07333;50,35480;0,00031
2,30000;0,07670;52,78947;0,00034
2,40000;0,08000;54,78233;0,00036
2,50000;0,08333;57,27027;0,00038
2,60000;0,08664;60,04336;0,00040
2,70000;0,09000;60,94892;0,00042
2,80000;0,09339;63,71259;0,00045
2,90000;0,09672;66,00940;0,00047
3,00000;0,10006;68,09939;0,00049
3,10000;0,10336;69,28695;0,00050
3,20000;0,10664;70,75967;0,00052
3,30000;0,10994;72,39844;0,00053
3,40000;0,11328;74,05917;0,00055
3,50000;0,11667;75,68541;0,00057
3,60000;0,11997;76,86358;0,00058
3,70000;0,12330;77,46520;0,00060
3,80000;0,12664;78,33629;0,00060
3,90000;0,12991;78,47729;0,00061
4,00000;0,13328;78,81570;0,00062
4,10000;0,13667;79,20112;0,00063
4,20000;0,14003;78,88151;0,00063
4,30000;0,14339;79,33272;0,00064
4,40000;0,14675;79,59906;0,00065
4,50000;0,15006;78,94731;0,00065
4,60000;0,15333;80,78036;0,00066
4,70000;0,15667;79,80274;0,00066
4,80000;0,16000;79,28885;0,00066
4,90000;0,16330;79,60846;0,00067
5,00000;0,16667;80,08161;0,00067
5,10000;0,17000;81,26604;0,00067
5,20000;0,17330;79,61473;0,00068
5,30000;0,17661;81,15637;0,00069
5,40000;0,17997;81,32245;0,00069
5,50000;0,18336;80,84617;0,00070
5,60000;0,18669;82,17787;0,00070
5,70000;0,19003;81,95540;0,00070
5,80000;0,19336;81,98674;0,00071
5,90000;0,19664;82,38468;0,00072
6,00000;0,19997;82,44421;0,00072
6,10000;0,20333;82,30634;0,00072
6,20000;0,20669;82,26248;0,00072
6,30000;0,21000;82,97689;0,00073
6,40000;0,21333;82,62595;0,00073
6,50000;0,21664;83,80725;0,00074
6,60000;0,21991;84,91022;0,00074
6,70000;0,22328;83,62238;0,00075
6,80000;0,22667;83,59418;0,00075
6,90000;0,23003;83,97959;0,00075
7,00000;0,23336;83,91378;0,00076
7,10000;0,23669;84,38380;0,00076
7,20000;0,24003;84,07045;0,00076
7,30000;0,24333;84,82562;0,00076
7,40000;0,24669;84,98855;0,00077
7,50000;0,25006;85,14835;0,00077
7,60000;0,25339;84,99481;0,00077
7,70000;0,25669;84,33054;0,00077
7,80000;0,26000;84,46526;0,00077
7,90000;0,26325;84,82875;0,00078
8,00000;0,26658;85,05435;0,00078
8,10000;0,26997;85,65597;0,00079
8,20000;0,27333;85,69357;0,00079
8,30000;0,27669;85,66851;0,00079
8,40000;0,28006;86,24819;0,00079
8,50000;0,28336;86,42053;0,00080
8,60000;0,28664;87,38249;0,00080
8,70000;0,28997;87,96217;0,00080
8,80000;0,29336;87,45455;0,00081
8,90000;0,29669;87,44516;0,00081
9,00000;0,30003;87,12241;0,00081
9,10000;0,30336;88,22852;0,00081
9,20000;0,30664;87,68330;0,00081
9,30000;0,30994;87,87130;0,00081
9,40000;0,31330;88,23478;0,00082
9,50000;0,31667;88,03424;0,00082
9,60000;0,32000;88,68600;0,00082
9,70000;0,32333;88,73299;0,00082
9,80000;0,32667;89,26254;0,00082
9,90000;0,32994;89,18107;0,00082
10,00000;0,33328;89,40041;0,00083
10,10000;0,33669;89,83283;0,00083
10,20000;0,34006;89,23435;0,00083
10,30000;0,34342;89,87983;0,00083
10,40000;0,34675;90,67885;0,00083
10,50000;0,35003;89,80463;0,00083
10,60000;0,35328;91,17393;0,00084
10,70000;0,35661;90,97026;0,00084
10,80000;0,35997;91,55308;0,00084
10,90000;0,36333;91,31808;0,00084
11,00000;0,36667;91,59067;0,00085
11,10000;0,37000;93,06652;0,00085
11,20000;0,37333;92,91299;0,00085
11,30000;0,37667;94,35436;0,00086
11,40000;0,38003;94,94345;0,00086
11,50000;0,38339;94,50477;0,00087
11,60000;0,38672;96,52895;0,00087
11,70000;0,39006;95,67667;0,00087
11,80000;0,39336;96,12475;0,00087
11,90000;0,39664;96,47569;0,00088
12,00000;0,39994;96,81723;0,00088
12,10000;0,40330;97,53793;0,00088
12,20000;0,40667;97,42199;0,00088
12,30000;0,41000;98,40901;0,00089
12,40000;0,41333;98,91976;0,00089
12,50000;0,41664;100,16999;0,00090
12,60000;0,41991;102,59841;0,00091
12,70000;0,42328;103,58543;0,00092
12,80000;0,42667;104,27166;0,00093
12,90000;0,43000;105,76003;0,00094
13,00000;0,43336;106,59352;0,00095
13,10000;0,43669;107,49908;0,00095
13,20000;0,44000;107,84375;0,00096
13,30000;0,44333;109,26320;0,00096
13,40000;0,44667;109,81782;0,00097
13,50000;0,45000;111,61327;0,00098
13,60000;0,45336;113,80040;0,00099
13,70000;0,45669;114,62762;0,00100
13,80000;0,46003;117,00277;0,00102
13,90000;0,46328;119,13662;0,00103
14,00000;0,46661;120,67826;0,00104
14,10000;0,46997;121,75930;0,00106
14,20000;0,47333;122,71500;0,00107
14,30000;0,47667;125,41914;0,00108
14,40000;0,48003;126,40617;0,00109
14,50000;0,48336;127,86008;0,00110
14,60000;0,48664;130,37309;0,00112
14,70000;0,48997;131,50739;0,00113
14,80000;0,49336;133,03336;0,00115
14,90000;0,49669;135,18604;0,00116
15,00000;0,50003;137,31363;0,00118
15,10000;0,50336;140,54732;0,00119
15,20000;0,50664;141,14267;0,00120
15,30000;0,50994;143,90008;0,00122
15,40000;0,51330;144,99679;0,00123
15,50000;0,51672;146,78910;0,00125
15,60000;0,52006;148,22108;0,00126
15,70000;0,52339;150,07607;0,00128
15,80000;0,52669;151,55191;0,00129
15,90000;0,52997;153,09042;0,00131
16,00000;0,53328;155,57209;0,00132
16,10000;0,53667;157,73103;0,00134
16,20000;0,54003;159,51395;0,00135
16,30000;0,54336;161,42847;0,00137
16,40000;0,54669;163,11739;0,00139
16,50000;0,55003;164,32375;0,00140
16,60000;0,55328;166,87750;0,00142
16,70000;0,55664;168,69801;0,00143
16,80000;0,56000;170,48094;0,00145
16,90000;0,56333;172,59914;0,00147
17,00000;0,56667;174,49172;0,00148
17,10000;0,57003;177,51234;0,00150
17,20000;0,57330;178,77511;0,00152
17,30000;0,57661;180,63011;0,00153
17,40000;0,58000;181,71427;0,00155
17,50000;0,58336;184,19907;0,00156
17,60000;0,58669;186,07599;0,00158
17,70000;0,59003;188,23493;0,00160
17,80000;0,59336;190,05858;0,00161
17,90000;0,59661;191,73810;0,00163
18,00000;0,59997;194,40464;0,00165
18,10000;0,60333;196,22203;0,00166
18,20000;0,60669;197,57566;0,00168
18,30000;0,61003;200,22967;0,00170
18,40000;0,61336;201,77446;0,00172
18,50000;0,61669;203,31296;0,00173
18,60000;0,61997;206,02965;0,00175
18,70000;0,62333;207,38642;0,00177
18,80000;0,62667;209,37300;0,00179
18,90000;0,63000;211,02119;0,00180
19,00000;0,63336;213,43080;0,00182
19,10000;0,63669;215,16357;0,00184
19,20000;0,63997;217,08438;0,00186
19,30000;0,64328;219,17436;0,00187
19,40000;0,64667;221,22676;0,00189
19,50000;0,65003;223,16948;0,00191
19,60000;0,65339;225,60416;0,00193
19,70000;0,65672;227,20534;0,00194
19,80000;0,66003;228,43049;0,00196
19,90000;0,66330;231,41040;0,00198
20,00000;0,66664;232,65437;0,00200
20,10000;0,67000;235,49637;0,00201
20,20000;0,67336;236,93461;0,00203
20,30000;0,67672;238,86482;0,00205
20,40000;0,68003;240,83573;0,00207
20,50000;0,68336;243,31114;0,00209
20,60000;0,68661;245,23819;0,00211
20,70000;0,68994;247,04305;0,00213
20,80000;0,69330;249,25212;0,00214
20,90000;0,69667;250,89716;0,00216
21,00000;0,70003;252,91822;0,00218
21,10000;0,70336;255,50644;0,00220
21,20000;0,70667;256,85695;0,00222
21,30000;0,70994;260,10631;0,00224
21,40000;0,71333;260,98366;0,00225
21,50000;0,71669;262,46891;0,00227
21,60000;0,72003;265,27019;0,00229
21,70000;0,72336;266,97477;0,00231
21,80000;0,72669;269,31232;0,00233
21,90000;0,72994;270,76935;0,00235
22,00000;0,73328;273,38576;0,00237
22,10000;0,73667;275,58855;0,00239
22,20000;0,74003;276,73852;0,00241
22,30000;0,74336;280,21350;0,00243
22,40000;0,74669;281,35092;0,00245
22,50000;0,75003;283,40647;0,00247
22,60000;0,75328;285,56224;0,00249
22,70000;0,75664;287,48617;0,00251
22,80000;0,76000;289,56365;0,00253
22,90000;0,76333;291,71316;0,00255
23,00000;0,76669;293,21408;0,00257
23,10000;0,77003;295,91196;0,00259
23,20000;0,77333;297,91736;0,00261
23,30000;0,77664;300,96304;0,00263
23,40000;0,78000;301,73699;0,00265
23,50000;0,78333;303,28804;0,00267
23,60000;0,78669;306,32745;0,00269
23,70000;0,79003;307,72497;0,00271
23,80000;0,79336;310,10325;0,00274
23,90000;0,79664;311,37855;0,00276
24,00000;0,79997;314,32710;0,00278
24,10000;0,80339;316,74923;0,00280
24,20000;0,80672;318,29714;0,00282
24,30000;0,81008;320,65662;0,00284
24,40000;0,81339;322,15440;0,00286
24,50000;0,81669;323,45478;0,00288
24,60000;0,81994;325,76411;0,00290
24,70000;0,82330;328,14865;0,00292
24,80000;0,82664;330,38903;0,00294
24,90000;0,82997;331,97768;0,00296
25,00000;0,83333;334,15854;0,00298
25,10000;0,83667;336,78436;0,00300
25,20000;0,83997;337,58339;0,00302
25,30000;0,84328;340,36587;0,00304
25,40000;0,84667;341,97017;0,00306
25,50000;0,85006;344,10404;0,00308
25,60000;0,85339;346,01544;0,00310
25,70000;0,85672;347,75762;0,00311
25,80000;0,86003;349,35568;0,00313
25,90000;0,86325;351,60547;0,00315
26,00000;0,86658;353,90228;0,00317
26,10000;0,86994;355,46585;0,00319
26,20000;0,87333;356,79443;0,00321
26,30000;0,87667;359,56749;0,00323
26,40000;0,88003;361,44443;0,00325
26,50000;0,88336;362,77298;0,00327
26,60000;0,88661;365,33300;0,00329
26,70000;0,88997;366,95611;0,00331
26,80000;0,89336;368,52597;0,00333
26,90000;0,89672;370,48121;0,00335
27,00000;0,90006;372,77802;0,00337
27,10000;0,90339;374,23193;0,00339
27,20000;0,90669;375,94906;0,00341
27,30000;0,90997;377,77585;0,00343
27,40000;0,91333;379,37702;0,00345
27,50000;0,91669;381,72395;0,00346
27,60000;0,92003;383,12145;0,00348
27,70000;0,92333;384,67876;0,00350
27,80000;0,92664;387,09464;0,00352
27,90000;0,92991;389,51365;0,00354
28,00000;0,93325;391,14300;0,00356
28,10000;0,93664;392,96355;0,00358
28,20000;0,94003;394,09469;0,00360
28,30000;0,94339;396,72991;0,00362
28,40000;0,94675;398,38748;0,00364
28,50000;0,95006;399,50614;0,00366
28,60000;0,95333;402,55808;0,00368
28,70000;0,95667;403,99944;0,00369
28,80000;0,96003;405,87950;0,00371
28,90000;0,96336;407,69065;0,00373
29,00000;0,96669;409,22286;0,00375
29,10000;0,97003;410,73319;0,00377
29,20000;0,97330;411,28779;0,00379
29,30000;0,97661;414,58104;0,00380
29,40000;0,97997;415,49602;0,00382
29,50000;0,98333;417,51391;0,00384
29,60000;0,98667;419,62587;0,00386
29,70000;0,99003;420,94504;0,00388
29,80000;0,99336;422,84075;0,00390
29,90000;0,99667;424,53595;0,00392
30,00000;1,00000;426,76381;0,00394
30,10000;1,00336;428,98227;0,00396
30,20000;1,00672;430,28891;0,00397
30,30000;1,01006;432,08124;0,00399
30,40000;1,01339;433,58840;0,00401
30,50000;1,01667;435,38073;0,00403
30,60000;1,01991;436,68738;0,00405
30,70000;1,02328;438,82751;0,00407
30,80000;1,02664;441,66325;0,00409
30,90000;1,02997;441,97971;0,00410
31,00000;1,03333;444,22327;0,00412
31,10000;1,03667;446,57332;0,00415
31,20000;1,03997;448,07424;0,00416
31,30000;1,04328;450,38355;0,00418
31,40000;1,04667;451,91892;0,00420
31,50000;1,05006;453,88988;0,00423
31,60000;1,05339;456,60343;0,00425
31,70000;1,05672;457,57163;0,00427
31,80000;1,06006;459,85589;0,00429
31,90000;1,06330;462,03365;0,00431
32,00000;1,06661;464,20824;0,00433
32,10000;1,06994;465,88150;0,00435
32,20000;1,07330;466,78390;0,00437
32,30000;1,07667;469,05880;0,00439
32,40000;1,08003;471,24280;0,00441
32,50000;1,08336;473,29515;0,00443
32,60000;1,08664;475,55435;0,00445
32,70000;1,09000;477,10855;0,00447
32,80000;1,09339;478,65333;0,00449
32,90000;1,09675;480,98774;0,00451
33,00000;1,10008;483,80154;0,00453
33,10000;1,10339;484,75410;0,00455
33,20000;1,10664;485,95108;0,00457
33,30000;1,10994;488,62076;0,00459
33,40000;1,11330;490,76402;0,00461
33,50000;1,11667;492,08319;0,00463
33,60000;1,11997;494,36432;0,00465
33,70000;1,12330;495,48293;0,00467
33,80000;1,12664;498,35630;0,00469
33,90000;1,12991;500,15803;0,00471
34,00000;1,13327;501,64955;0,00473
34,10000;1,13664;503,82414;0,00475
34,20000;1,14003;504,97726;0,00477
34,30000;1,14336;507,32102;0,00480
34,40000;1,14672;508,64960;0,00482
34,50000;1,15006;510,54219;0,00484
34,60000;1,15333;513,49704;0,00486
34,70000;1,15664;513,72889;0,00488
34,80000;1,16000;516,27639;0,00490
34,90000;1,16333;517,78667;0,00492
35,00000;1,16667;520,08349;0,00494
35,10000;1,17000;522,61217;0,00496
35,20000;1,17330;523,34224;0,00498
35,30000;1,17661;525,06560;0,00500
35,40000;1,18000;527,57235;0,00502
35,50000;1,18336;528,90405;0,00504
35,60000;1,18669;531,06928;0,00506
35,70000;1,19006;532,81146;0,00508
35,80000;1,19339;535,12077;0,00510
35,90000;1,19667;537,01340;0,00512
36,00000;1,19997;539,25063;0,00514
36,10000;1,20336;540,32230;0,00516
36,20000;1,20669;541,76990;0,00518
36,30000;1,21000;543,92884;0,00520
36,40000;1,21330;545,69296;0,00522
36,50000;1,21661;547,52291;0,00524
36,60000;1,21991;549,55333;0,00526
36,70000;1,22325;551,42716;0,00528
36,80000;1,22664;553,05026;0,00530
36,90000;1,23000;554,60129;0,00532
37,00000;1,23336;557,21146;0,00534
37,10000;1,23672;558,01985;0,00536
37,20000;1,24003;559,80594;0,00538
37,30000;1,24333;561,64525;0,00540
37,40000;1,24669;563,60364;0,00542
37,50000;1,25006;565,30195;0,00544
37,60000;1,25336;566,76213;0,00546
37,70000;1,25669;569,42552;0,00548
37,80000;1,26000;571,01417;0,00551
37,90000;1,26325;572,87230;0,00552
38,00000;1,26658;575,57020;0,00554
38,10000;1,26997;576,01514;0,00556
38,20000;1,27333;578,24613;0,00559
38,30000;1,27669;579,70942;0,00560
38,40000;1,28006;581,88089;0,00563
38,50000;1,28339;582,99326;0,00564
38,60000;1,28667;584,59444;0,00566
38,70000;1,29003;586,79725;0,00568
38,80000;1,29339;588,92169;0,00570
38,90000;1,29672;590,85190;0,00572
39,00000;1,30006;592,01126;0,00575
39,10000;1,30333;593,70957;0,00576
39,20000;1,30664;594,48355;0,00578
39,30000;1,30994;597,38196;0,00580
39,40000;1,31327;598,48805;0,00582
39,50000;1,31667;600,37440;0,00584
39,60000;1,31997;602,90932;0,00586
39,70000;1,32333;603,96530;0,00588
39,80000;1,32664;605,84219;0,00590
39,90000;1,32991;607,33999;0,00592
40,00000;1,33325;609,58038;0,00594
40,10000;1,33667;611,08130;0,00596
40,20000;1,34003;612,08084;0,00598
40,30000;1,34342;614,23667;0,00600
40,40000;1,34672;615,71877;0,00602
40,50000;1,35003;617,88084;0,00604
40,60000;1,35327;620,22149;0,00606
40,70000;1,35661;621,13018;0,00608
40,80000;1,35997;622,77522;0,00610
40,90000;1,36333;625,09086;0,00612
41,00000;1,36667;627,31872;0,00614
41,10000;1,37000;628,56581;0,00616
41,20000;1,37333;629,20502;0,00618
41,30000;1,37667;631,38274;0,00620
41,40000;1,38003;633,51351;0,00622
41,50000;1,38342;635,47501;0,00624
41,60000;1,38675;637,06366;0,00626
41,70000;1,39006;638,62726;0,00628
41,80000;1,39339;640,50416;0,00630
41,90000;1,39667;641,67921;0,00632
42,00000;1,39994;644,17967;0,00634
42,10000;1,40330;645,67747;0,00636
42,20000;1,40667;647,44782;0,00638
42,30000;1,41000;648,41607;0,00640
42,40000;1,41333;650,25538;0,00642
42,50000;1,41664;651,83463;0,00644
42,60000;1,41991;654,42282;0,00646
42,70000;1,42330;655,40359;0,00648
42,80000;1,42666;657,08938;0,00650
42,90000;1,43000;659,42067;0,00652
43,00000;1,43336;660,29485;0,00654
43,10000;1,43669;662,54782;0,00656
43,20000;1,44000;663,47215;0,00658
43,30000;1,44327;665,71883;0,00660
43,40000;1,44667;666,61811;0,00662
43,50000;1,45000;668,93059;0,00664
43,60000;1,45336;671,01121;0,00665
43,70000;1,45669;671,97941;0,00668
43,80000;1,46003;674,22921;0,00670
43,90000;1,46327;675,73953;0,00672
44,00000;1,46661;677,75431;0,00673
44,10000;1,46997;678,95441;0,00676
44,20000;1,47336;680,32998;0,00678
44,30000;1,47669;682,81479;0,00679
44,40000;1,48006;684,55385;0,00682
44,50000;1,48339;685,66622;0,00684
44,60000;1,48666;688,11029;0,00685
44,70000;1,49000;688,81847;0,00688
44,80000;1,49336;691,16852;0,00689
44,90000;1,49669;691,70748;0,00691
45,00000;1,50003;693,42772;0,00693
45,10000;1,50336;695,76525;0,00695
45,20000;1,50664;697,54818;0,00697
45,30000;1,50994;699,26842;0,00699
45,40000;1,51330;699,79485;0,00701
45,50000;1,51672;702,57732;0,00703
45,60000;1,52006;703,67088;0,00705
45,70000;1,52339;705,96142;0,00707
45,80000;1,52669;707,14271;0,00709
45,90000;1,52994;708,82849;0,00711
46,00000;1,53327;710,45789;0,00713
46,10000;1,53666;712,50712;0,00715
46,20000;1,54003;713,28422;0,00717
46,30000;1,54336;715,17997;0,00719
46,40000;1,54672;717,26996;0,00721
46,50000;1,55003;718,56719;0,00723
46,60000;1,55325;720,35324;0,00725
46,70000;1,55661;721,78836;0,00727
46,80000;1,55997;723,54935;0,00729
46,90000;1,56336;724,69930;0,00731
47,00000;1,56669;726,36316;0,00733
47,10000;1,57003;729,06730;0,00735
47,20000;1,57336;730,12640;0,00737
47,30000;1,57666;730,81888;0,00739
47,40000;1,58003;733,84265;0,00741
47,50000;1,58339;734,84848;0,00743
47,60000;1,58672;736,44966;0,00745
47,70000;1,59003;738,05712;0,00747
47,80000;1,59333;739,24465;0,00749
47,90000;1,59661;740,95237;0,00751
48,00000;1,59994;742,56924;0,00753
48,10000;1,60333;745,30472;0,00755
48,20000;1,60669;745,68698;0,00757
48,30000;1,61000;747,68923;0,00759
48,40000;1,61333;749,01469;0,00761
48,50000;1,61666;750,59393;0,00762
48,60000;1,61994;752,40508;0,00764
48,70000;1,62330;754,23811;0,00766
48,80000;1,62664;755,48836;0,00768
48,90000;1,63000;757,27752;0,00770
49,00000;1,63336;758,43064;0,00772
49,10000;1,63669;760,98125;0,00774
49,20000;1,63997;761,38857;0,00776
49,30000;1,64327;764,31520;0,00778
49,40000;1,64666;764,15227;0,00780
49,50000;1,65003;766,24542;0,00782
49,60000;1,65339;767,98759;0,00784
49,70000;1,65672;769,90211;0,00786
49,80000;1,66006;771,76024;0,00788
49,90000;1,66333;773,17338;0,00790
50,00000;1,66666;773,77190;0,00792
50,10000;1,67003;776,27236;0,00794
50,20000;1,67339;777,95815;0,00796
50,30000;1,67672;780,06382;0,00798
50,40000;1,68003;781,56786;0,00800
50,50000;1,68336;782,74282;0,00802
50,60000;1,68661;785,01143;0,00803
50,70000;1,68994;785,78852;0,00805
50,80000;1,69330;786,91971;0,00807
50,90000;1,69666;788,98463;0,00809
51,00000;1,70003;790,18790;0,00811
51,10000;1,70336;792,26848;0,00813
51,20000;1,70664;793,64404;0,00815
51,30000;1,70994;795,28596;0,00817
51,40000;1,71330;796,78688;0,00819
51,50000;1,71666;797,59220;0,00821
51,60000;1,72000;799,25917;0,00823
51,70000;1,72336;800,57830;0,00825
51,80000;1,72669;802,61817;0,00826
51,90000;1,72991;803,96552;0,00828
52,00000;1,73325;804,72380;0,00830
52,10000;1,73664;807,59404;0,00832
52,20000;1,74000;807,95437;0,00834
52,30000;1,74336;810,10079;0,00836
52,40000;1,74672;811,88371;0,00838
52,50000;1,75003;812,75171;0,00840
52,60000;1,75330;814,92625;0,00841
52,70000;1,75666;816,33320;0,00844
52,80000;1,76003;817,37032;0,00845
52,90000;1,76339;819,30365;0,00847
53,00000;1,76672;820,07134;0,00849
53,10000;1,77003;821,87308;0,00851
53,20000;1,77336;823,34261;0,00853
53,30000;1,77666;824,75580;0,00855
53,40000;1,78000;826,95866;0,00857
53,50000;1,78333;827,09650;0,00858
53,60000;1,78666;830,16409;0,00860
53,70000;1,79000;831,22952;0,00862
53,80000;1,79336;832,56746;0,00864
53,90000;1,79664;834,04640;0,00866
54,00000;1,79997;834,69190;0,00868
54,10000;1,80336;836,94169;0,00870
54,20000;1,80669;837,76582;0,00872
54,30000;1,81005;839,31684;0,00874
54,40000;1,81339;841,00580;0,00876
54,50000;1,81669;843,13024;0,00877
54,60000;1,81994;844,48699;0,00879
54,70000;1,82327;845,92216;0,00881
54,80000;1,82664;846,99690;0,00883
54,90000;1,82997;848,64190;0,00885
55,00000;1,83330;849,26235;0,00887
55,10000;1,83664;851,75969;0,00888
55,20000;1,83994;852,12635;0,00891
55,30000;1,84325;854,12543;0,00892
55,40000;1,84666;855,71725;0,00894
55,50000;1,85005;856,41909;0,00896
55,60000;1,85339;859,08249;0,00898
55,70000;1,85672;860,11970;0,00900
55,80000;1,86005;861,26337;0,00902
55,90000;1,86333;862,47912;0,00904
56,00000;1,86664;864,47513;0,00906
56,10000;1,87000;866,16091;0,00908
56,20000;1,87336;867,80284;0,00910
56,30000;1,87666;868,69895;0,00911
56,40000;1,88003;869,92728;0,00913
56,50000;1,88336;871,52533;0,00915
56,60000;1,88661;873,35529;0,00917
56,70000;1,88997;875,16634;0,00919
56,80000;1,89333;876,15969;0,00921
56,90000;1,89669;877,25008;0,00923
57,00000;1,90005;879,45601;0,00925
57,10000;1,90339;880,23627;0,00927
57,20000;1,90666;882,21971;0,00929
57,30000;1,90994;882,57063;0,00931
57,40000;1,91330;885,10243;0,00932
57,50000;1,91666;886,05192;0,00934
57,60000;1,92000;887,88178;0,00936
57,70000;1,92333;889,36081;0,00938
57,80000;1,92666;890,36981;0,00940
57,90000;1,92988;891,77042;0,00942
58,00000;1,93325;892,86081;0,00944
58,10000;1,93664;895,06991;0,00945
58,20000;1,94003;896,45488;0,00948
58,30000;1,94339;898,03096;0,00950
58,40000;1,94675;899,77318;0,00952
58,50000;1,95008;900,23689;0,00953
58,60000;1,95336;901,88514;0,00955
58,70000;1,95669;903,49885;0,00957
58,80000;1,96005;904,21634;0,00959
58,90000;1,96336;906,08075;0,00961
59,00000;1,96669;907,24956;0,00963
59,10000;1,97000;909,46173;0,00965
59,20000;1,97330;909,86593;0,00967
59,30000;1,97661;912,41654;0,00969
59,40000;1,97997;914,09609;0,00971
59,50000;1,98333;914,40314;0,00973
59,60000;1,98669;916,64977;0,00975
59,70000;1,99003;916,77196;0,00976
59,80000;1,99336;918,21337;0,00978
59,90000;1,99664;920,18116;0,00980
60,00000;1,99997;921,07737;0,00982
60,10000;2,00336;923,24568;0,00984
60,20000;2,00669;923,97258;0,00986
60,30000;2,01005;925,85264;0,00988
60,40000;2,01336;927,30969;0,00990
60,50000;2,01666;928,32493;0,00991
60,60000;2,01991;930,17053;0,00993
60,70000;2,02327;931,50847;0,00995
60,80000;2,02664;933,28832;0,00997
60,90000;2,03000;933,41991;0,00999
61,00000;2,03333;935,12135;0,01001
61,10000;2,03666;937,22697;0,01003
61,20000;2,03997;937,46511;0,01005
61,30000;2,04327;939,73372;0,01007
61,40000;2,04666;941,10304;0,01009
61,50000;2,05005;943,01132;0,01011
61,60000;2,05342;944,34302;0,01013
61,70000;2,05672;945,29875;0,01014
61,80000;2,06005;946,51766;0,01016
61,90000;2,06330;948,08433;0,01018
62,00000;2,06661;948,49169;0,01020
62,10000;2,06994;950,62237;0,01022
62,20000;2,07333;952,51808;0,01024
62,30000;2,07666;953,51767;0,01026
62,40000;2,08003;954,71470;0,01028
62,50000;2,08336;956,37226;0,01030
62,60000;2,08664;958,84763;0,01032
62,70000;2,09000;959,39599;0,01034
62,80000;2,09339;961,07237;0,01036
62,90000;2,09672;962,30386;0,01037
63,00000;2,10008;962,98065;0,01039
63,10000;2,10339;964,74793;0,01041
63,20000;2,10666;966,23627;0,01043
63,30000;2,10994;967,76225;0,01045
63,40000;2,11327;969,17851;0,01047
63,50000;2,11666;970,10294;0,01049
63,60000;2,12000;971,63832;0,01051
63,70000;2,12333;972,57830;0,01053
63,80000;2,12664;973,61859;0,01055
63,90000;2,12988;975,98433;0,01056
64,00000;2,13325;976,66429;0,01058
64,10000;2,13666;979,18669;0,01060
64,20000;2,14005;979,69435;0,01062
64,30000;2,14342;981,25162;0,01064
64,40000;2,14675;982,68986;0,01066
64,50000;2,15005;983,73648;0,01068
64,60000;2,15330;985,34077;0,01070
64,70000;2,15666;987,36491;0,01071
64,80000;2,15997;988,40212;0,01074
64,90000;2,16330;989,49568;0,01075
65,00000;2,16666;989,91869;0,01077
65,10000;2,17000;991,99619;0,01079
65,20000;2,17330;993,82922;0,01081
65,30000;2,17661;994,68147;0,01083
65,40000;2,17997;996,65560;0,01085
65,50000;2,18336;997,42953;0,01087
65,60000;2,18669;999,44435;0,01089
65,70000;2,19003;999,99579;0,01091
65,80000;2,19336;1002,09201;0,01093
65,90000;2,19666;1003,71828;0,01095
66,00000;2,19997;1004,59568;0,01097
66,10000;2,20336;1006,99589;0,01099
66,20000;2,20669;1007,60059;0,01100
66,30000;2,21000;1009,36163;0,01102
66,40000;2,21330;1010,98781;0,01104
66,50000;2,21664;1011,58321;0,01106
66,60000;2,21991;1013,00888;0,01108
66,70000;2,22327;1014,00223;0,01110
66,80000;2,22664;1015,76010;0,01112
66,90000;2,23000;1017,11368;0,01114
67,00000;2,23336;1018,28873;0,01116
67,10000;2,23672;1019,23188;0,01118
67,20000;2,24005;1020,66696;0,01120
67,30000;2,24336;1021,86706;0,01122
67,40000;2,24669;1024,47411;0,01124
67,50000;2,25008;1024,66522;0,01125
67,60000;2,25339;1026,50141;0,01127
67,70000;2,25669;1027,73290;0,01129
67,80000;2,26000;1028,90478;0,01131
67,90000;2,26327;1030,36184;0,01133
68,00000;2,26658;1031,41461;0,01135
68,10000;2,26997;1033,17248;0,01137
68,20000;2,27333;1034,34129;0,01138
68,30000;2,27666;1035,74507;0,01141
68,40000;2,28003;1037,22718;0,01142
68,50000;2,28336;1038,05121;0,01144
68,60000;2,28661;1039,51767;0,01146
68,70000;2,29000;1040,55172;0,01148
68,80000;2,29336;1041,83955;0,01150
68,90000;2,29672;1043,28403;0,01152
69,00000;2,30005;1045,12023;0,01154
69,10000;2,30339;1046,61174;0,01156
69,20000;2,30664;1047,59568;0,01158
69,30000;2,30994;1048,58894;0,01160
69,40000;2,31327;1050,49098;0,01162
69,50000;2,31666;1051,24610;0,01164
69,60000;2,32000;1052,53393;0,01165
69,70000;2,32333;1053,76542;0,01167
69,80000;2,32666;1055,28822;0,01169
69,90000;2,32994;1056,16869;0,01171
70,00000;2,33327;1057,82002;0,01173
70,10000;2,33666;1059,93822;0,01175
70,20000;2,34003;1060,74978;0,01177
70,30000;2,34342;1061,71491;0,01179
70,40000;2,34675;1063,16255;0,01181
70,50000;2,35005;1064,32186;0,01183
70,60000;2,35327;1065,83536;0,01185
70,70000;2,35661;1066,13301;0,01187
70,80000;2,35997;1068,67105;0,01188
70,90000;2,36333;1070,30990;0,01190
71,00000;2,36666;1070,75796;0,01192
71,10000;2,37000;1072,66931;0,01194
71,20000;2,37330;1074,06061;0,01196
71,30000;2,37664;1074,42401;0,01198
71,40000;2,38003;1077,28485;0,01200
71,50000;2,38339;1077,60765;0,01202
71,60000;2,38675;1078,94875;0,01204
71,70000;2,39005;1079,97330;0,01206
71,80000;2,39336;1081,38341;0,01208
71,90000;2,39664;1083,39507;0,01210
72,00000;2,39994;1084,26297;0,01212
72,10000;2,40330;1085,25315;0,01214
72,20000;2,40666;1086,78853;0,01216
72,30000;2,41000;1087,61573;0,01218
72,40000;2,41333;1089,69007;0,01220
72,50000;2,41666;1089,73086;0,01221
72,60000;2,41991;1091,99313;0,01223
72,70000;2,42330;1092,77340;0,01225
72,80000;2,42664;1094,04242;0,01227
72,90000;2,43000;1095,66553;0,01229
73,00000;2,43336;1096,33924;0,01231
73,10000;2,43672;1097,96859;0,01233
73,20000;2,44000;1099,33792;0,01235
73,30000;2,44330;1100,34058;0,01237
73,40000;2,44666;1102,22697;0,01239
73,50000;2,45000;1102,94446;0,01240
73,60000;2,45336;1103,31737;0,01242
73,70000;2,45669;1104,96245;0,01244
73,80000;2,46003;1106,71716;0,01246
73,90000;2,46327;1107,80448;0,01248
74,00000;2,46661;1108,39354;0,01250
74,10000;2,46997;1110,18587;0,01252
74,20000;2,47333;1110,78741;0,01253
74,30000;2,47666;1112,41369;0,01255
74,40000;2,48005;1114,19037;0,01257
74,50000;2,48336;1114,69794;0,01259
74,60000;2,48666;1115,77269;0,01261
74,70000;2,49000;1116,62820;0,01263
74,80000;2,49336;1117,79068;0,01265
74,90000;2,49669;1119,11297;0,01267
75,00000;2,50003;1120,53864;0,01268
75,10000;2,50336;1121,59150;0,01270
75,20000;2,50666;1123,09866;0,01272
75,30000;2,50994;1123,75040;0,01274
75,40000;2,51330;1124,75939;0,01276
75,50000;2,51669;1126,63005;0,01278
75,60000;2,52003;1127,59518;0,01279
75,70000;2,52339;1128,63230;0,01281
75,80000;2,52669;1130,07678;0,01283
75,90000;2,53000;1131,85346;0,01285
76,00000;2,53330;1131,74692;0,01287
76,10000;2,53669;1133,72412;0,01289
76,20000;2,54005;1134,43229;0,01291
76,30000;2,54336;1135,96143;0,01292
76,40000;2,54669;1136,66011;0,01294
76,50000;2,55003;1138,24569;0,01296
76,60000;2,55327;1139,24211;0,01298
76,70000;2,55664;1140,34191;0,01299
76,80000;2,56000;1141,17544;0,01302
76,90000;2,56333;1143,96103;0,01303
77,00000;2,56666;1143,99549;0,01305
77,10000;2,57000;1146,06041;0,01307
77,20000;2,57330;1146,50540;0,01309
77,30000;2,57661;1147,69917;0,01311
77,40000;2,58000;1149,12800;0,01313
77,50000;2,58336;1150,01798;0,01314
77,60000;2,58669;1151,83536;0,01316
77,70000;2,59003;1152,57166;0,01318
77,80000;2,59333;1153,70601;0,01320
77,90000;2,59661;1155,33536;0,01322
78,00000;2,59994;1156,33495;0,01324
78,10000;2,60333;1157,86716;0,01326
78,20000;2,60669;1158,35909;0,01328
78,30000;2,61003;1159,57176;0,01329
78,40000;2,61336;1160,98495;0,01332
78,50000;2,61669;1162,42943;0,01333
78,60000;2,61997;1163,33188;0,01335
78,70000;2,62333;1164,17473;0,01337
78,80000;2,62669;1165,66001;0,01339
78,90000;2,63003;1166,46839;0,01341
79,00000;2,63336;1167,35520;0,01343
79,10000;2,63669;1169,31982;0,01345
79,20000;2,63997;1170,06246;0,01347
79,30000;2,64327;1171,33465;0,01348
79,40000;2,64666;1172,75091;0,01350
79,50000;2,65005;1174,03250;0,01352
79,60000;2,65339;1174,82217;0,01354
79,70000;2,65672;1175,42688;0,01356
79,80000;2,66003;1177,27248;0,01358
79,90000;2,66330;1178,73577;0,01359
80,00000;2,66664;1179,76982;0,01361
80,10000;2,67003;1181,15796;0,01364
80,20000;2,67339;1181,85040;0,01365
80,30000;2,67672;1182,95336;0,01367
80,40000;2,68003;1184,11900;0,01369
80,50000;2,68333;1185,49149;0,01371
80,60000;2,68658;1186,94538;0,01373
80,70000;2,68994;1188,13608;0,01375
80,80000;2,69330;1188,73138;0,01377
80,90000;2,69666;1190,43598;0,01379
81,00000;2,70003;1191,61727;0,01381
81,10000;2,70336;1193,13700;0,01382
81,20000;2,70664;1194,19293;0,01384
81,30000;2,70994;1195,14549;0,01386
81,40000;2,71333;1196,38955;0,01388
81,50000;2,71672;1197,43925;0,01390
81,60000;2,72005;1199,01216;0,01392
81,70000;2,72336;1199,93025;0,01394
81,80000;2,72669;1200,89855;0,01396
81,90000;2,72994;1202,18638;0,01398
82,00000;2,73327;1203,05121;0,01399
82,10000;2,73663;1204,74007;0,01401
82,20000;2,74003;1204,86543;0,01403
82,30000;2,74339;1206,78935;0,01405
82,40000;2,74672;1208,25889;0,01407
82,50000;2,75005;1209,17698;0,01409
82,60000;2,75330;1210,69048;0,01411
82,70000;2,75663;1211,59293;0,01413
82,80000;2,75997;1212,28853;0,01415
82,90000;2,76333;1213,59518;0,01417
83,00000;2,76669;1214,32524;0,01419
83,10000;2,77003;1215,95152;0,01421
83,20000;2,77333;1216,90091;0,01422
83,30000;2,77664;1218,73710;0,01424
83,40000;2,78003;1219,55490;0,01426
83,50000;2,78333;1221,05582;0,01428
83,60000;2,78666;1222,29671;0,01430
83,70000;2,79000;1223,16778;0,01432
83,80000;2,79336;1224,05766;0,01434
83,90000;2,79661;1225,37054;0,01436
84,00000;2,79997;1225,79355;0,01438
84,10000;2,80339;1227,93373;0,01440
84,20000;2,80672;1228,15305;0,01442
84,30000;2,81008;1229,84191;0,01444
84,40000;2,81339;1231,08597;0,01445
84,50000;2,81669;1232,31113;0,01447
84,60000;2,81994;1233,41717;0,01449
84,70000;2,82330;1234,26318;0,01451
84,80000;2,82663;1235,14058;0,01453
84,90000;2,82994;1236,63209;0,01455
85,00000;2,83330;1237,68179;0,01457
85,10000;2,83666;1239,29242;0,01459
85,20000;2,83997;1240,37964;0,01461
85,30000;2,84327;1240,94365;0,01462
85,40000;2,84666;1242,48220;0,01464
85,50000;2,85000;1243,68854;0,01467
85,60000;2,85336;1244,47197;0,01468
85,70000;2,85672;1245,46839;0,01470
85,80000;2,86003;1247,30142;0,01472
85,90000;2,86330;1248,92453;0,01474
86,00000;2,86663;1249,61697;0,01476
86,10000;2,87000;1251,08659;0,01478
86,20000;2,87336;1251,86676;0,01480
86,30000;2,87669;1252,99795;0,01482
86,40000;2,88000;1254,67125;0,01484
86,50000;2,88333;1255,10367;0,01486
86,60000;2,88661;1256,76123;0,01488
86,70000;2,88997;1257,48506;0,01490
86,80000;2,89333;1258,73527;0,01492
86,90000;2,89672;1260,01062;0,01494
87,00000;2,90005;1261,09477;0,01496
87,10000;2,90339;1262,89334;0,01498
87,20000;2,90666;1263,77381;0,01499
87,30000;2,90997;1264,54774;0,01501
87,40000;2,91330;1265,94529;0,01503
87,50000;2,91666;1267,24876;0,01505
87,60000;2,92003;1268,34232;0,01507
87,70000;2,92333;1269,49856;0,01509
87,80000;2,92663;1270,80521;0,01511
87,90000;2,92988;1271,46328;0,01513
88,00000;2,93322;1272,37504;0,01515
88,10000;2,93663;1274,25827;0,01517
88,20000;2,94000;1274,83169;0,01519
88,30000;2,94339;1276,15398;0,01521
88,40000;2,94675;1277,08465;0,01523
88,50000;2,95005;1278,29099;0,01525
88,60000;2,95330;1279,80439;0,01527
88,70000;2,95666;1280,64733;0,01529
88,80000;2,96003;1281,74089;0,01531
88,90000;2,96336;1282,98486;0,01533
89,00000;2,96669;1283,35776;0,01535
89,10000;2,97003;1286,14018;0,01537
89,20000;2,97330;1286,60714;0,01539
89,30000;2,97661;1287,55970;0,01540
89,40000;2,97997;1288,75040;0,01542
89,50000;2,98336;1289,47105;0,01544
89,60000;2,98672;1290,59283;0,01546
89,70000;2,99005;1291,52974;0,01548
89,80000;2,99336;1293,06819;0,01550
89,90000;2,99666;1294,63803;0,01552
90,00000;3,00000;1295,14886;0,01554
90,10000;3,00336;1297,16983;0,01556
90,20000;3,00669;1297,89999;0,01558
90,30000;3,01005;1298,75848;0,01560
90,40000;3,01339;1300,55398;0,01562
90,50000;3,01669;1300,24375;0,01564
90,60000;3,01991;1302,52177;0,01566
90,70000;3,02324;1303,15786;0,01568
90,80000;3,02663;1304,55224;0,01570
90,90000;3,02997;1305,14130;0,01572
91,00000;3,03333;1306,87412;0,01574
91,10000;3,03666;1308,64764;0,01576
91,20000;3,03997;1308,91707;0,01578
91,30000;3,04327;1310,33342;0,01580
91,40000;3,04666;1311,88128;0,01582
91,50000;3,05005;1312,64590;0,01584
91,60000;3,05339;1313,45745;0,01586
91,70000;3,05672;1314,23455;0,01588
91,80000;3,06005;1315,34692;0,01589
91,90000;3,06330;1316,73496;0,01591
92,00000;3,06658;1317,43057;0,01593
92,10000;3,06994;1319,31379;0,01595
92,20000;3,07333;1319,92791;0,01597
92,30000;3,07669;1321,88629;0,01599
92,40000;3,08002;1322,20285;0,01601
92,50000;3,08333;1323,54079;0,01603
92,60000;3,08661;1324,94140;0,01605
92,70000;3,09000;1325,62453;0,01607
92,80000;3,09342;1327,08782;0,01609
92,90000;3,09675;1327,77402;0,01611
93,00000;3,10008;1329,40030;0,01613
93,10000;3,10342;1329,91727;0,01615
93,20000;3,10666;1331,23957;0,01617
93,30000;3,10997;1331,88199;0,01619
93,40000;3,11330;1333,17607;0,01621
93,50000;3,11663;1334,36676;0,01623
93,60000;3,11997;1335,83639;0,01625
93,70000;3,12330;1336,53823;0,01627
93,80000;3,12661;1337,09600;0,01629
93,90000;3,12991;1338,47157;0,01631
94,00000;3,13324;1339,90357;0,01633
94,10000;3,13663;1340,86860;0,01635
94,20000;3,14003;1342,23169;0,01637
94,30000;3,14342;1343,33465;0,01639
94,40000;3,14675;1344,16185;0,01641
94,50000;3,15005;1344,83865;0,01643
94,60000;3,15333;1347,15429;0,01645
94,70000;3,15663;1347,85613;0,01647
94,80000;3,16000;1348,94969;0,01649
94,90000;3,16333;1349,96492;0,01651
95,00000;3,16666;1350,75143;0,01653
95,10000;3,17000;1352,10827;0,01655
95,20000;3,17330;1352,72238;0,01657
95,30000;3,17661;1354,27658;0,01659
95,40000;3,17997;1355,67402;0,01661
95,50000;3,18336;1356,38220;0,01663
95,60000;3,18669;1357,87688;0,01665
95,70000;3,19002;1358,72606;0,01667
95,80000;3,19339;1360,02013;0,01669
95,90000;3,19666;1361,12627;0,01671
96,00000;3,20000;1362,04744;0,01673
96,10000;3,20336;1363,29765;0,01675
96,20000;3,20669;1363,91185;0,01677
96,30000;3,21000;1364,84876;0,01679
96,40000;3,21330;1366,37157;0,01681
96,50000;3,21663;1366,96063;0,01683
96,60000;3,21991;1368,67464;0,01685
96,70000;3,22327;1369,37024;0,01687
96,80000;3,22663;1371,00276;0,01689
96,90000;3,23000;1371,84253;0,01691
97,00000;3,23336;1372,48803;0,01693
97,10000;3,23672;1374,57177;0,01695
97,20000;3,24000;1375,09191;0,01698
97,30000;3,24330;1376,31390;0,01700
97,40000;3,24669;1377,61114;0,01702
97,50000;3,25005;1378,49171;0,01704
97,60000;3,25339;1378,93977;0,01706
97,70000;3,25672;1380,46890;0,01708
97,80000;3,26002;1381,56870;0,01710
97,90000;3,26324;1382,26431;0,01712
98,00000;3,26658;1383,33282;0,01714
98,10000;3,26997;1384,91830;0,01716
98,20000;3,27333;1386,00245;0,01718
98,30000;3,27669;1387,59110;0,01720
98,40000;3,28002;1388,02985;0,01722
98,50000;3,28336;1388,84448;0,01724
98,60000;3,28666;1390,21697;0,01726
98,70000;3,29000;1391,44529;0,01728
98,80000;3,29336;1392,23170;0,01730
98,90000;3,29672;1393,50388;0,01732
99,00000;3,30005;1394,08987;0,01734
99,10000;3,30333;1395,70981;0,01736
99,20000;3,30663;1395,90409;0,01738
99,30000;3,30994;1397,39877;0,01740
99,40000;3,31330;1398,11942;0,01742
99,50000;3,31666;1399,89294;0,01744
99,60000;3,32000;1401,06482;0,01746
99,70000;3,32333;1402,06441;0,01748
99,80000;3,32666;1403,27075;0,01750
99,90000;3,32991;1404,05726;0,01752
100,00000;3,33324;1404,86881;0,01754
100,10000;3,33666;1406,54212;0,01756
100,20000;3,34002;1407,42576;0,01758
100,30000;3,34341;1408,01482;0,01760
100,40000;3,34675;1409,03313;0,01763
100,50000;3,35005;1410,16431;0,01765
100,60000;3,35327;1411,49294;0,01767
100,70000;3,35661;1412,09457;0,01769
100,80000;3,35997;1413,12853;0,01771
100,90000;3,36330;1414,42893;0,01773
101,00000;3,36666;1415,72934;0,01775
101,10000;3,37000;1417,12055;0,01777
101,20000;3,37333;1417,81932;0,01779
101,30000;3,37666;1419,20736;0,01782
101,40000;3,38005;1420,14120;0,01784
101,50000;3,38341;1420,77412;0,01786
101,60000;3,38675;1421,97423;0,01788
101,70000;3,39005;1423,23384;0,01790
101,80000;3,39339;1424,17075;0,01792
101,90000;3,39663;1425,32699;0,01794
102,00000;3,39991;1426,43312;0,01796
102,10000;3,40327;1427,12872;0,01798
102,20000;3,40663;1428,89284;0,01800
102,30000;3,41000;1429,21247;0,01802
102,40000;3,41330;1430,44069;0,01804
102,50000;3,41663;1431,64713;0,01806
102,60000;3,41991;1432,55889;0,01808
102,70000;3,42327;1433,74652;0,01810
102,80000;3,42663;1434,40450;0,01812
102,90000;3,43000;1435,80828;0,01815
103,00000;3,43336;1436,36921;0,01817
103,10000;3,43672;1436,82035;0,01819
103,20000;3,44000;1439,00439;0,01821
103,30000;3,44330;1439,59969;0,01823
103,40000;3,44666;1440,53660;0,01825
103,50000;3,45000;1441,26676;0,01827
103,60000;3,45336;1442,61094;0,01829
103,70000;3,45672;1443,95521;0,01831
103,80000;3,46002;1444,54427;0,01833
103,90000;3,46330;1445,68486;0,01835
104,00000;3,46661;1447,22024;0,01837
104,10000;3,47002;1448,03803;0,01839
104,20000;3,47336;1449,08465;0,01841
104,30000;3,47672;1450,15623;0,01843
104,40000;3,48005;1450,56983;0,01845
104,50000;3,48339;1452,06451;0,01848
104,60000;3,48666;1453,27710;0,01850
104,70000;3,49002;1454,45848;0,01852
104,80000;3,49339;1455,43916;0,01854
104,90000;3,49669;1455,91237;0,01856
105,00000;3,50002;1457,29734;0,01858
105,10000;3,50333;1457,67024;0,01860
105,20000;3,50663;1459,57218;0,01862
105,30001;3,50991;1459,93251;0,01864
105,40001;3,51330;1460,93834;0,01866
105,50001;3,51666;1463,10041;0,01868
105,60001;3,52005;1463,78977;0,01870
105,70001;3,52336;1464,29744;0,01872
105,80001;3,52669;1465,31574;0,01874
105,90001;3,52994;1466,31850;0,01876
106,00001;3,53327;1467,40265;0,01879
106,10001;3,53666;1468,53691;0,01881
106,20001;3,54002;1469,45501;0,01883
106,30001;3,54339;1470,08793;0,01885
106,40001;3,54669;1471,66094;0,01887
106,50001;3,55000;1472,73261;0,01889
106,60001;3,55327;1474,07996;0,01891
106,70001;3,55661;1474,71605;0,01893
106,80001;3,56000;1476,55848;0,01895
106,90001;3,56336;1476,34540;0,01898
107,00001;3,56669;1477,82126;0,01900
107,10001;3,57002;1479,07147;0,01902
107,20001;3,57336;1479,46635;0,01904
107,30001;3,57669;1481,05808;0,01906
107,40001;3,58002;1481,69100;0,01908
107,50001;3,58341;1482,63425;0,01910
107,60001;3,58675;1483,78415;0,01912
107,70001;3,59005;1484,88404;0,01914
107,80001;3,59336;1486,09355;0,01916
107,90001;3,59663;1486,66697;0,01919
108,00001;3,59994;1487,40010;0,01921
108,10001;3,60333;1488,87597;0,01923
108,20001;3,60666;1490,34243;0,01925
108,30001;3,61002;1490,82188;0,01927
108,40001;3,61333;1492,02198;0,01929
108,50001;3,61666;1493,19386;0,01931
108,60001;3,61991;1494,09939;0,01933
108,70001;3,62327;1494,91411;0,01935
108,80001;3,62666;1496,42751;0,01937
108,90001;3,63000;1496,91319;0,01940
109,00001;3,63336;1497,74989;0,01942
109,10001;3,63666;1499,03139;0,01944
109,20001;3,63997;1500,44458;0,01946
109,30001;3,64327;1500,72658;0,01948
109,40001;3,64666;1501,85153;0,01950
109,50001;3,65005;1503,29918;0,01952
109,60001;3,65339;1504,46482;0,01954
109,70001;3,65672;1505,05695;0,01957
109,80001;3,66005;1505,74008;0,01959
109,90001;3,66333;1506,56104;0,01961
110,00001;3,66663;1508,04939;0,01963
110,10001;3,67002;1509,27771;0,01965
110,20001;3,67339;1509,70072;0,01967
110,30001;3,67672;1511,12955;0,01969
110,40001;3,68005;1511,95992;0,01972
110,50001;3,68336;1512,99397;0,01974
110,60001;3,68661;1513,88701;0,01976
110,70001;3,68994;1514,68599;0,01978
110,80001;3,69330;1515,31901;0,01980
110,90001;3,69669;1517,27423;0,01982
111,00001;3,70002;1517,51237;0,01985
111,10001;3,70336;1518,98190;0,01987
111,20001;3,70666;1519,33916;0,01989
111,30001;3,70994;1520,85572;0,01991
111,40001;3,71330;1521,61084;0,01993
111,50001;3,71669;1522,79846;0,01995
111,60001;3,72002;1523,87321;0,01997
111,70001;3,72336;1524,92290;0,01999
111,80001;3,72666;1525,95378;0,02002
111,90001;3,72994;1526,48333;0,02004
112,00001;3,73327;1527,31370;0,02006
112,10001;3,73663;1528,57332;0,02008
112,20001;3,74002;1529,40685;0,02010
112,30001;3,74339;1530,61952;0,02012
112,40001;3,74672;1531,71616;0,02015
112,50001;3,75002;1533,48343;0,02017
112,60001;3,75327;1534,02863;0,02019
112,70001;3,75663;1534,87157;0,02021
112,80001;3,76000;1535,45747;0,02024
112,90001;3,76336;1536,26595;0,02026
113,00001;3,76669;1537,69786;0,02028
113,10001;3,77002;1538,55328;0,02030
113,20001;3,77333;1538,91053;0,02033
113,30001;3,77663;1539,68446;0,02035
113,40001;3,78000;1541,99069;0,02037
113,50001;3,78333;1542,85235;0,02039
113,60001;3,78666;1543,57934;0,02041
113,70001;3,79002;1544,32822;0,02043
113,80001;3,79336;1545,16799;0,02046
113,90001;3,79663;1546,04530;0,02048
114,00001;3,80000;1548,00061;0,02050
114,10001;3,80339;1548,72751;0,02052
114,20001;3,80672;1548,99079;0,02054
114,30001;3,81005;1549,49836;0,02057
114,40001;3,81339;1550,88957;0,02059
114,50001;3,81669;1552,66309;0,02061
114,60001;3,81994;1553,49663;0,02063
114,70001;3,82327;1554,04499;0,02065
114,80001;3,82663;1554,71237;0,02067
114,90001;3,82997;1555,65552;0,02070
115,00001;3,83330;1556,08486;0,02072
115,10001;3,83663;1557,59826;0,02074
115,20001;3,83994;1558,75450;0,02076
115,30001;3,84327;1559,75092;0,02078
115,40001;3,84666;1560,35256;0,02081
115,50001;3,85005;1562,06023;0,02083
115,60001;3,85339;1562,41432;0,02085
115,70001;3,85672;1563,17260;0,02088
115,80001;3,86005;1564,63273;0,02090
115,90001;3,86333;1565,54468;0,02092
116,00001;3,86663;1565,82352;0,02094
116,10001;3,87000;1567,52802;0,02096
116,20001;3,87336;1568,70931;0,02099
116,30001;3,87666;1569,01963;0,02101
116,40001;3,88000;1570,64591;0,02103
116,50001;3,88333;1571,37271;0,02105
116,60001;3,88658;1572,66688;0,02107
116,70001;3,88994;1573,77291;0,02110
116,80001;3,89333;1574,31196;0,02112
116,90001;3,89669;1575,43365;0,02114
117,00001;3,90005;1576,50523;0,02116
117,10001;3,90339;1576,81238;0,02119
117,20001;3,90666;1577,97802;0,02121
117,30001;3,90994;1579,65440;0,02123
117,40001;3,91333;1579,45380;0,02125
117,50001;3,91666;1580,96738;0,02127
117,60001;3,92000;1582,23957;0,02130
117,70001;3,92336;1582,67822;0,02132
117,80001;3,92666;1583,53038;0,02134
117,90001;3,92991;1584,67107;0,02136
118,00001;3,93327;1585,22874;0,02138
118,10001;3,93666;1586,30665;0,02141
118,20001;3,94002;1587,34377;0,02143
118,30001;3,94341;1588,68805;0,02145
118,40001;3,94675;1589,39939;0,02148
118,50001;3,95008;1590,96923;0,02150
118,60001;3,95336;1591,49244;0,02152
118,70001;3,95669;1592,36994;0,02154
118,80001;3,96005;1592,89949;0,02156
118,90001;3,96336;1594,42220;0,02159
119,00001;3,96669;1595,75716;0,02161
119,10001;3,97000;1596,94776;0,02163
119,20001;3,97330;1596,69705;0,02165
119,30001;3,97661;1598,54591;0,02168
119,40001;3,98000;1598,84673;0,02170
119,50001;3,98333;1600,61382;0,02172
119,60001;3,98669;1601,49131;0,02175
119,70001;3,99000;1602,11176;0,02177
119,80001;3,99336;1602,77281;0,02179
119,90001;3,99663;1603,53743;0,02181
120,00001;3,99994;1604,85338;0,02184
120,10001;4,00336;1604,85022;0,02186
120,20001;4,00672;1606,26974;0,02188
120,30001;4,01002;1607,29121;0,02190
120,40001;4,01336;1608,26892;0,02193
120,50001;4,01666;1609,40941;0,02195
120,60001;4,01991;1610,35266;0,02197
120,70001;4,02327;1611,34582;0,02199
120,80001;4,02663;1611,74070;0,02202
120,90001;4,03000;1612,94397;0,02204
121,00001;4,03333;1613,62700;0,02206
121,10001;4,03666;1614,78017;0,02208
121,20001;4,03997;1615,08713;0,02210
121,30001;4,04330;1616,56309;0,02213
121,40001;4,04669;1616,97045;0,02215
121,50001;4,05008;1618,44622;0,02217
121,60001;4,05341;1618,64981;0,02220
121,70001;4,05672;1619,57741;0,02222
121,80001;4,06005;1620,86207;0,02224
121,90001;4,06330;1621,52015;0,02227
122,00001;4,06658;1622,83611;0,02228
122,10001;4,06994;1623,30922;0,02231
122,20001;4,07330;1624,34336;0,02234
122,30001;4,07666;1625,78784;0,02236
122,40001;4,08000;1627,19153;0,02238
122,50001;4,08336;1627,83395;0,02240
122,60001;4,08663;1628,90553;0,02243
122,70001;4,09000;1629,24398;0,02245
122,80001;4,09341;1629,85809;0,02247
122,90001;4,09675;1631,31207;0,02250
123,00001;4,10008;1631,80083;0,02252
123,10001;4,10339;1632,38682;0,02254
123,20001;4,10666;1634,06320;0,02257
123,30001;4,10994;1634,64602;0,02259
123,40001;4,11327;1635,25399;0,02261
123,50001;4,11666;1637,20287;0,02264
123,60001;4,11997;1637,82015;0,02266
123,70001;4,12330;1638,68181;0,02268
123,80001;4,12663;1639,34622;0,02270
123,90001;4,12988;1639,52783;0,02273
124,00001;4,13324;1640,70297;0,02275
124,10001;4,13663;1642,39500;0,02277
124,20001;4,14002;1643,06555;0,02280
124,30001;4,14341;1642,37618;0,02282
124,40001;4,14675;1644,29694;0,02284
124,50001;4,15005;1645,87945;0,02287
124,60001;4,15333;1646,07670;0,02289
124,70001;4,15666;1647,59960;0,02291
124,80001;4,15999;1648,15728;0,02294
124,90001;4,16333;1649,29163;0,02296
125,00001;4,16666;1649,53303;0,02298
125,10001;4,17000;1650,88661;0,02301
125,20001;4,17330;1651,33160;0,02303
125,30001;4,17660;1652,86697;0,02305
125,40001;4,18000;1653,55932;0,02308
125,50001;4,18333;1654,41167;0,02310
125,60001;4,18669;1655,18560;0,02312
125,70001;4,19002;1656,12884;0,02314
125,80001;4,19336;1657,25369;0,02317
125,90001;4,19666;1658,13416;0,02319
126,00001;4,19997;1658,55717;0,02321
126,10001;4,20336;1659,41883;0,02324
126,20001;4,20669;1660,74429;0,02326
126,30001;4,21002;1661,69684;0,02328
126,40001;4,21333;1662,32362;0,02331
126,50001;4,21663;1663,03795;0,02333
126,60001;4,21991;1664,02198;0,02335
126,70001;4,22327;1664,74264;0,02338
126,80001;4,22666;1666,13385;0,02340
126,90001;4,23002;1666,61944;0,02342
127,00001;4,23336;1667,60646;0,02345
127,10001;4,23672;1668,89746;0,02347
127,20001;4,24005;1669,85635;0,02350
127,30001;4,24336;1670,94357;0,02352
127,40001;4,24672;1671,35093;0,02354
127,50001;4,25008;1671,88365;0,02357
127,60001;4,25339;1672,54489;0,02359
127,70001;4,25669;1674,21494;0,02361
127,80001;4,26000;1674,75082;0,02364
127,90001;4,26324;1675,65309;0,02366
128,00001;4,26655;1676,51176;0,02369
128,10001;4,26994;1676,98804;0,02371
128,20001;4,27333;1678,37292;0,02373
128,30001;4,27672;1678,74899;0,02376
128,40001;4,28005;1680,05247;0,02378
128,50001;4,28336;1680,77312;0,02381
128,60001;4,28663;1681,61299;0,02383
128,70001;4,28999;1682,29919;0,02385
128,80001;4,29336;1683,67159;0,02388
128,90001;4,29672;1684,26391;0,02390
129,00001;4,30005;1685,20063;0,02393
129,10001;4,30339;1686,16902;0,02395
129,20001;4,30663;1687,60084;0,02398
129,30001;4,30994;1687,57904;0,02400
129,40001;4,31327;1688,58487;0,02402
129,50001;4,31666;1689,64714;0,02405
129,60001;4,31999;1690,22996;0,02407
129,70001;4,32333;1690,80961;0,02409
129,80001;4,32666;1692,00655;0,02412
129,90001;4,32994;1692,08795;0,02414
130,00001;4,33327;1693,37261;0,02416
130,10001;4,33666;1693,79879;0,02419
130,20001;4,34005;1695,43754;0,02421
130,30001;4,34341;1695,48467;0,02424
130,40001;4,34675;1696,70042;0,02426
130,50001;4,35005;1697,81279;0,02429
130,60001;4,35327;1698,36432;0,02431
130,70001;4,35663;1699,97476;0,02433
130,80001;4,35997;1699,99357;0,02436
130,90001;4,36333;1701,03703;0,02438
131,00001;4,36666;1701,92067;0,02441
131,10001;4,36999;1703,14889;0,02443
131,20001;4,37330;1703,63151;0,02446
131,30001;4,37660;1704,37731;0,02448
131,40001;4,38002;1705,52731;0,02451
131,50001;4,38339;1706,15707;0,02453
131,60001;4,38675;1707,03121;0,02456
131,70001;4,39005;1708,19387;0,02458
131,80001;4,39339;1708,43508;0,02460
131,90001;4,39666;1709,51933;0,02463
132,00001;4,39997;1710,87291;0,02465
132,10001;4,40330;1712,06053;0,02468
132,20001;4,40666;1712,26095;0,02470
132,30001;4,40999;1712,99111;0,02473
132,40001;4,41330;1713,84960;0,02475
132,50001;4,41663;1714,46372;0,02477
132,60001;4,41991;1715,24081;0,02480
132,70001;4,42330;1715,99295;0,02482
132,80001;4,42663;1716,89838;0,02485
132,90001;4,43002;1718,09550;0,02487
133,00001;4,43336;1719,93785;0,02489
133,10001;4,43672;1719,71228;0,02492
133,20001;4,44002;1720,73059;0,02494
133,30001;4,44333;1720,58642;0,02497
133,40001;4,44669;1722,04990;0,02499
133,50001;4,44999;1723,36586;0,02502
133,60001;4,45336;1723,77937;0,02504
133,70001;4,45672;1725,03591;0,02507
133,80001;4,46002;1724,87926;0,02509
133,90001;4,46330;1725,73477;0,02512
134,00001;4,46660;1726,75308;0,02514
134,10001;4,46997;1727,34838;0,02516
134,20001;4,47333;1728,02527;0,02519
134,30001;4,47666;1729,68600;0,02521
134,40001;4,48002;1730,34091;0,02524
134,50001;4,48336;1731,14296;0,02526
134,60001;4,48663;1732,38385;0,02529
134,70001;4,48997;1732,56565;0,02531
134,80001;4,49336;1733,84715;0,02534
134,90001;4,49669;1734,37353;0,02536
135,00001;4,50002;1735,48590;0,02539
135,10001;4,50336;1736,11566;0,02541
135,20001;4,50663;1737,08089;0,02544
135,30001;4,50994;1737,29397;0,02546
135,40001;4,51333;1738,16197;0,02549
135,50001;4,51669;1739,00798;0,02551
135,60001;4,52005;1739,46545;0,02554
135,70001;4,52338;1739,55932;0,02556
135,80001;4,52669;1741,54602;0,02559
135,90001;4,52997;1742,06290;0,02561
136,00001;4,53327;1742,65839;0,02564
136,10001;4,53666;1743,61095;0,02566
136,20001;4,54002;1745,10237;0,02569
136,30001;4,54336;1745,68202;0,02571
136,40001;4,54669;1746,18978;0,02574
136,50001;4,55002;1747,30215;0,02576
136,60001;4,55327;1747,72814;0,02579
136,70001;4,55663;1748,07925;0,02581
136,80001;4,55999;1749,07558;0,02584
136,90001;4,56333;1749,90911;0,02586
137,00001;4,56669;1750,53570;0,02589
137,10001;4,57002;1751,58232;0,02591
137,20001;4,57333;1752,30298;0,02594
137,30001;4,57663;1753,24306;0,02596
137,40001;4,58002;1754,36176;0,02599
137,50001;4,58338;1754,83804;0,02602
137,60001;4,58672;1755,53039;0,02604
137,70001;4,59002;1755,82189;0,02607
137,80001;4,59336;1756,90912;0,02609
137,90001;4,59660;1758,15318;0,02612
138,00001;4,59994;1758,46647;0,02614
138,10001;4,60333;1759,17465;0,02617
138,20001;4,60669;1760,32782;0,02619
138,30001;4,61002;1761,09225;0,02622
138,40001;4,61333;1761,75665;0,02624
138,50001;4,61666;1762,68723;0,02627
138,60001;4,61994;1763,21678;0,02629
138,70001;4,62333;1763,40789;0,02632
138,80001;4,62666;1764,58918;0,02634
138,90001;4,63002;1765,32250;0,02637
139,00001;4,63338;1765,93978;0,02639
139,10001;4,63669;1767,10840;0,02642
139,20001;4,63997;1768,32117;0,02644
139,30001;4,64327;1768,52159;0,02647
139,40001;4,64666;1769,13571;0,02649
139,50001;4,65002;1770,16351;0,02652
139,60001;4,65339;1770,87486;0,02654
139,70001;4,65672;1771,44818;0,02657
139,80001;4,66005;1772,54491;0,02659
139,90001;4,66330;1772,91464;0,02662
140,00001;4,66663;1773,73569;0,02664
140,10001;4,66999;1774,76034;0,02667
140,20001;4,67336;1775,55624;0,02670
140,30001;4,67672;1776,14205;0,02672
140,40001;4,68005;1776,90350;0,02675
140,50001;4,68336;1777,26392;0,02677
140,60001;4,68660;1779,04367;0,02680
140,70001;4,68997;1779,54193;0,02683
140,80001;4,69330;1779,82077;0,02685
140,90001;4,69669;1780,09346;0,02688
141,00001;4,70002;1781,34367;0,02690
141,10001;4,70336;1782,02353;0,02693
141,20001;4,70666;1783,48366;0,02695
141,30001;4,70997;1783,99757;0,02698
141,40001;4,71333;1784,61187;0,02700
141,50001;4,71669;1785,20717;0,02703
141,60001;4,72002;1786,03753;0,02706
141,70001;4,72336;1786,67363;0,02708
141,80001;4,72669;1788,26228;0,02711
141,90001;4,72994;1788,58191;0,02713
142,00001;4,73324;1788,53795;0,02716
142,10001;4,73660;1789,87905;0,02718
142,20001;4,73999;1790,34900;0,02721
142,30001;4,74336;1790,76903;0,02723
142,40001;4,74669;1791,72158;0,02726
142,50001;4,75002;1792,49234;0,02729
142,60001;4,75330;1792,87158;0,02731
142,70001;4,75663;1794,02456;0,02734
142,76201;4,75871;1540,69662;0,02467
142,76801;4,75894;1233,89978;0,02158
142,77201;4,75905;1018,94671;0,01934
