Text Inputs : Specimen label;"1"
Dimension : Length;50,00000;mm
Dimension : Final length;100,00000;mm
Test : Rate 1;2,00000;mm/min
General : Unique Identifier;"{67588A5C-19ED-43F4-8422-7E73C6E71925}"

Time;Extension;Load;Strain 1
(sec);(mm);(N);(mm/mm)
0,00000;0,00000;13,57229;0,00010
0,10000;0,00191;12,97381;0,00010
0,20000;0,00499;13,40309;0,00010
0,30000;0,00852;14,18645;0,00010
0,40000;0,01214;15,57142;0,00011
0,50000;0,01575;18,38211;0,00013
0,60000;0,01926;21,80381;0,00015
0,70000;0,02282;26,09660;0,00018
0,80000;0,02632;29,26763;0,00021
0,90000;0,02977;32,99953;0,00024
1,00000;0,03322;36,18309;0,00026
1,10000;0,03661;39,57660;0,00029
1,20000;0,03994;42,09273;0,00031
1,30000;0,04325;45,09769;0,00033
1,40000;0,04664;47,42269;0,00036
1,50000;0,05003;50,03597;0,00038
1,60000;0,05339;53,12553;0,00040
1,70000;0,05672;55,67927;0,00042
1,80000;0,06003;57,95727;0,00045
1,90000;0,06330;60,57995;0,00047
2,00000;0,06661;61,95239;0,00049
2,10000;0,06994;63,98285;0,00051
2,20000;0,07333;64,41526;0,00053
2,30000;0,07667;66,28905;0,00054
2,40000;0,08000;67,52362;0,00056
2,50000;0,08333;67,95604;0,00057
2,60000;0,08661;68,05944;0,00058
2,70000;0,09000;68,54825;0,00058
2,80000;0,09339;68,53885;0,00059
2,90000;0,09675;69,19373;0,00059
3,00000;0,10006;68,37904;0,00059
3,10000;0,10339;68,72999;0,00060
3,20000;0,10664;68,15030;0,00060
3,30000;0,10991;68,45111;0,00061
3,40000;0,11328;68,66732;0,00061
3,50000;0,11664;68,65478;0,00061
3,60000;0,11997;69,24387;0,00061
3,70000;0,12330;68,85532;0,00061
3,80000;0,12664;68,72058;0,00062
3,90000;0,12989;69,50081;0,00062
4,00000;0,13325;68,32577;0,00062
4,10000;0,13664;69,01827;0,00062
4,20000;0,14000;69,14047;0,00062
4,30000;0,14336;68,75192;0,00063
4,40000;0,14675;68,91172;0,00063
4,50000;0,15006;68,70492;0,00063
4,60000;0,15333;68,46678;0,00063
4,70000;0,15669;69,32847;0,00063
4,80000;0,16006;68,85219;0,00063
4,90000;0,16336;69,49455;0,00064
5,00000;0,16669;68,62972;0,00064
5,10000;0,17000;69,15299;0,00064
5,20000;0,17330;68,21924;0,00064
5,30000;0,17661;68,44798;0,00064
5,40000;0,17994;69,03392;0,00064
5,50000;0,18333;68,16597;0,00065
5,60000;0,18667;68,34144;0,00065
5,70000;0,19000;69,51961;0,00065
5,80000;0,19333;68,69865;0,00065
5,90000;0,19664;69,15614;0,00065
6,00000;0,19997;68,96500;0,00065
6,10000;0,20336;68,91799;0,00065
6,20000;0,20672;68,94619;0,00065
6,30000;0,21003;68,47618;0,00065
6,40000;0,21333;68,08137;0,00066
6,50000;0,21664;68,41351;0,00066
6,60000;0,21991;69,44127;0,00066
6,70000;0,22325;69,06526;0,00066
6,80000;0,22664;68,50437;0,00066
6,90000;0,23003;68,15344;0,00066
7,00000;0,23336;68,49811;0,00066
7,10000;0,23667;68,86786;0,00066
7,20000;0,24000;68,93679;0,00067
7,30000;0,24336;68,72372;0,00067
7,40000;0,24672;68,46678;0,00067
7,50000;0,25011;68,95559;0,00067
7,60000;0,25342;68,73625;0,00067
7,70000;0,25672;69,48201;0,00067
7,80000;0,26000;69,28773;0,00067
7,90000;0,26328;69,26893;0,00067
8,00000;0,26658;68,93366;0,00067
8,10000;0,26994;69,73582;0,00067
8,20000;0,27333;69,18747;0,00068
8,30000;0,27667;68,76759;0,00068
8,40000;0,28003;69,25641;0,00068
8,50000;0,28339;68,83965;0,00068
8,60000;0,28664;69,50081;0,00068
8,70000;0,28997;69,52900;0,00068
8,80000;0,29336;69,12480;0,00068
8,90000;0,29672;69,19373;0,00068
9,00000;0,30006;69,40993;0,00068
9,10000;0,30336;68,89605;0,00068
9,20000;0,30664;68,62031;0,00068
9,30000;0,30994;69,17807;0,00069
9,40000;0,31330;68,35398;0,00069
9,50000;0,31667;68,57332;0,00069
9,60000;0,31997;70,09616;0,00069
9,70000;0,32333;69,39113;0,00069
9,80000;0,32667;69,10600;0,00069
9,90000;0,32994;70,00529;0,00069
10,00000;0,33325;69,85802;0,00069
10,10000;0,33661;70,27790;0,00069
10,20000;0,33997;70,14943;0,00069
10,30000;0,34333;69,33474;0,00069
10,40000;0,34675;69,94576;0,00069
10,50000;0,35006;70,38130;0,00069
10,60000;0,35330;69,76401;0,00069
10,70000;0,35667;70,39383;0,00069
10,80000;0,36003;70,46903;0,00070
10,90000;0,36336;71,29939;0,00070
11,00000;0,36669;70,55991;0,00070
11,10000;0,37003;72,01069;0,00070
11,20000;0,37330;71,44354;0,00070
11,30000;0,37661;71,47486;0,00070
11,40000;0,38003;72,02321;0,00070
11,50000;0,38342;72,16108;0,00071
11,60000;0,38675;72,50577;0,00071
11,70000;0,39006;72,80657;0,00071
11,80000;0,39339;74,16648;0,00071
11,90000;0,39664;75,28824;0,00072
12,00000;0,39997;75,10338;0,00072
12,10000;0,40333;75,52638;0,00072
12,20000;0,40667;74,68036;0,00073
12,30000;0,41000;76,48208;0,00073
12,40000;0,41330;77,24037;0,00073
12,50000;0,41664;78,69741;0,00074
12,60000;0,41991;80,97854;0,00075
12,70000;0,42328;81,87784;0,00077
12,80000;0,42664;83,62002;0,00078
12,90000;0,43000;85,72883;0,00079
13,00000;0,43333;86,19257;0,00080
13,10000;0,43667;88,56457;0,00081
13,20000;0,43997;90,07175;0,00082
13,30000;0,44328;92,32155;0,00083
13,40000;0,44667;93,76293;0,00084
13,50000;0,45003;95,38603;0,00086
13,60000;0,45339;97,34130;0,00087
13,70000;0,45672;98,71060;0,00088
13,80000;0,46003;100,44966;0,00089
13,90000;0,46328;102,34225;0,00090
14,00000;0,46661;103,29480;0,00091
14,10000;0,46997;104,33823;0,00092
14,20000;0,47333;106,01775;0,00093
14,30000;0,47664;107,48419;0,00095
14,40000;0,47997;109,69639;0,00096
14,50000;0,48330;111,32890;0,00098
14,60000;0,48661;113,84818;0,00099
14,70000;0,49000;116,83120;0,00101
14,80000;0,49336;118,51699;0,00103
14,90000;0,49672;120,92972;0,00105
15,00000;0,50006;122,81605;0,00106
15,10000;0,50336;125,50766;0,00108
15,20000;0,50667;127,81386;0,00110
15,30000;0,50994;131,12902;0,00112
15,40000;0,51330;134,86407;0,00115
15,50000;0,51667;135,38735;0,00117
15,60000;0,52003;137,61835;0,00119
15,70000;0,52339;140,41963;0,00121
15,80000;0,52672;142,51276;0,00123
15,90000;0,52997;145,32658;0,00125
16,00000;0,53330;147,78945;0,00127
16,10000;0,53667;150,13638;0,00130
16,20000;0,54003;152,78413;0,00132
16,30000;0,54333;155,42561;0,00134
16,40000;0,54669;157,50306;0,00136
16,50000;0,55003;160,55189;0,00138
16,60000;0,55328;161,86793;0,00140
16,70000;0,55664;164,28067;0,00142
16,80000;0,56003;166,76860;0,00145
16,90000;0,56336;169,11868;0,00146
17,00000;0,56669;171,19300;0,00148
17,10000;0,57000;173,74988;0,00150
17,20000;0,57330;175,37926;0,00153
17,30000;0,57658;178,02074;0,00155
17,40000;0,57997;180,77502;0,00157
17,50000;0,58336;182,81802;0,00159
17,60000;0,58672;185,59736;0,00161
17,70000;0,59006;187,34895;0,00163
17,80000;0,59336;189,72409;0,00165
17,90000;0,59664;192,13682;0,00168
18,00000;0,59997;194,87857;0,00170
18,10000;0,60336;196,77742;0,00172
18,20000;0,60669;198,83921;0,00174
18,30000;0,61003;201,46815;0,00176
18,40000;0,61333;203,46416;0,00178
18,50000;0,61667;206,26229;0,00181
18,60000;0,61994;209,16699;0,00183
18,70000;0,62330;210,13834;0,00185
18,80000;0,62667;211,99959;0,00187
18,90000;0,63000;215,38369;0,00189
19,00000;0,63336;217,28256;0,00191
19,10000;0,63667;219,87390;0,00193
19,20000;0,63997;221,77589;0,00196
19,30000;0,64328;224,48944;0,00198
19,40000;0,64667;226,36636;0,00200
19,50000;0,65006;228,44381;0,00202
19,60000;0,65339;231,67438;0,00205
19,70000;0,65672;233,52937;0,00207
19,80000;0,66006;235,76349;0,00209
19,90000;0,66333;238,15744;0,00211
20,00000;0,66664;239,94348;0,00213
20,10000;0,66997;242,58182;0,00215
20,20000;0,67333;243,99501;0,00217
20,30000;0,67669;246,50488;0,00220
20,40000;0,68003;249,14322;0,00222
20,50000;0,68336;251,27083;0,00224
20,60000;0,68658;254,59852;0,00226
20,70000;0,68997;255,28474;0,00228
20,80000;0,69330;258,06408;0,00231
20,90000;0,69667;260,28568;0,00233
21,00000;0,70003;262,23154;0,00235
21,10000;0,70336;263,96746;0,00237
21,20000;0,70667;266,30501;0,00239
21,30000;0,70997;268,95902;0,00241
21,40000;0,71333;270,42858;0,00244
21,50000;0,71667;272,91966;0,00246
21,60000;0,72000;276,21603;0,00248
21,70000;0,72336;277,54772;0,00250
21,80000;0,72669;279,50925;0,00252
21,90000;0,72997;282,74609;0,00254
22,00000;0,73328;283,99006;0,00256
22,10000;0,73664;286,49992;0,00259
22,20000;0,74000;288,56173;0,00261
22,30000;0,74336;290,59532;0,00263
22,40000;0,74672;292,39389;0,00265
22,50000;0,75003;294,66250;0,00267
22,60000;0,75330;297,30399;0,00269
22,70000;0,75667;298,83622;0,00272
22,80000;0,76003;301,08916;0,00274
22,90000;0,76336;303,12589;0,00276
23,00000;0,76669;304,48893;0,00278
23,10000;0,77000;307,51582;0,00280
23,20000;0,77330;308,96659;0,00282
23,30000;0,77658;311,56107;0,00285
23,40000;0,77997;313,52572;0,00287
23,50000;0,78333;315,43397;0,00289
23,60000;0,78669;317,75897;0,00291
23,70000;0,79006;319,71738;0,00293
23,80000;0,79339;322,01104;0,00295
23,90000;0,79664;323,73129;0,00298
24,00000;0,79997;326,37590;0,00300
24,10000;0,80336;328,54110;0,00302
24,20000;0,80672;329,93860;0,00304
24,30000;0,81008;332,32628;0,00306
24,40000;0,81339;334,55414;0,00308
24,50000;0,81669;336,59399;0,00310
24,60000;0,81994;339,51122;0,00312
24,70000;0,82330;341,26281;0,00315
24,80000;0,82664;343,21179;0,00317
24,90000;0,82997;345,60261;0,00319
25,00000;0,83333;346,96250;0,00321
25,10000;0,83664;348,79243;0,00323
25,20000;0,83994;350,34034;0,00325
25,30000;0,84325;353,61163;0,00327
25,40000;0,84667;355,01854;0,00330
25,50000;0,85006;357,15555;0,00332
25,60000;0,85342;359,48681;0,00334
25,70000;0,85675;361,44208;0,00336
25,80000;0,86003;362,76751;0,00338
25,90000;0,86330;364,86064;0,00340
26,00000;0,86661;367,26396;0,00342
26,10000;0,86997;369,55765;0,00344
26,20000;0,87333;371,00529;0,00347
26,30000;0,87667;373,00440;0,00349
26,40000;0,88000;375,39522;0,00351
26,50000;0,88333;376,86166;0,00353
26,60000;0,88661;379,68801;0,00355
26,70000;0,88997;381,76547;0,00357
26,80000;0,89336;383,36979;0,00359
26,90000;0,89672;385,33758;0,00361
27,00000;0,90006;387,02022;0,00364
27,10000;0,90339;388,91281;0,00366
27,20000;0,90667;390,36046;0,00368
27,30000;0,90994;393,28393;0,00370
27,40000;0,91330;395,18904;0,00372
27,50000;0,91667;397,44512;0,00374
27,60000;0,92000;399,34083;0,00376
27,70000;0,92333;400,69763;0,00378
27,80000;0,92667;402,54947;0,00380
27,90000;0,92994;405,26614;0,00383
28,00000;0,93325;407,54727;0,00385
28,10000;0,93664;409,74696;0,00387
28,20000;0,94000;411,24159;0,00389
28,30000;0,94333;413,37544;0,00391
28,40000;0,94672;414,53480;0,00393
28,50000;0,95008;417,36742;0,00396
28,60000;0,95336;419,13469;0,00398
28,70000;0,95669;420,34420;0,00400
28,80000;0,96006;422,89165;0,00402
28,90000;0,96339;424,98480;0,00404
29,00000;0,96669;426,73326;0,00406
29,10000;0,97003;428,83889;0,00408
29,20000;0,97330;429,94502;0,00410
29,30000;0,97655;431,68408;0,00412
29,40000;0,97994;434,60443;0,00414
29,50000;0,98333;436,21813;0,00416
29,60000;0,98667;438,34574;0,00419
29,70000;0,99003;440,32605;0,00421
29,80000;0,99336;441,64211;0,00423
29,90000;0,99667;443,03332;0,00425
30,00000;1,00000;446,22002;0,00427
30,10000;1,00336;447,94967;0,00429
30,20000;1,00672;449,72007;0,00431
30,30000;1,01006;451,99492;0,00433
30,40000;1,01339;454,08490;0,00436
30,50000;1,01667;455,20668;0,00438
30,60000;1,01991;457,00213;0,00440
30,70000;1,02328;459,20494;0,00442
30,80000;1,02664;460,95024;0,00444
30,90000;1,03000;463,23137;0,00446
31,00000;1,03333;465,10831;0,00448
31,10000;1,03667;466,26143;0,00450
31,20000;1,03994;467,83127;0,00452
31,30000;1,04322;470,39124;0,00454
31,40000;1,04658;471,36261;0,00456
31,50000;1,05000;474,09497;0,00458
31,60000;1,05336;476,15049;0,00460
31,70000;1,05672;477,88327;0,00462
31,80000;1,06008;480,10489;0,00464
31,90000;1,06333;481,13265;0,00466
32,00000;1,06664;483,50152;0,00468
32,10000;1,06997;485,90484;0,00471
32,20000;1,07333;487,09554;0,00473
32,30000;1,07667;488,66542;0,00475
32,40000;1,08000;491,44477;0,00477
32,50000;1,08336;492,16859;0,00479
32,60000;1,08664;494,60637;0,00481
32,70000;1,09000;495,60596;0,00483
32,80000;1,09342;497,57999;0,00485
32,90000;1,09678;499,68879;0,00487
33,00000;1,10011;501,74431;0,00489
33,10000;1,10342;502,85044;0,00491
33,20000;1,10669;504,13511;0,00493
33,30000;1,10997;507,01159;0,00495
33,40000;1,11330;508,36527;0,00498
33,50000;1,11664;509,31466;0,00500
33,60000;1,11997;512,27575;0,00501
33,70000;1,12330;514,07437;0,00504
33,80000;1,12664;515,28071;0,00506
33,90000;1,12988;517,35505;0,00508
34,00000;1,13325;519,04083;0,00510
34,10000;1,13661;520,29109;0,00512
34,20000;1,13997;522,70382;0,00514
34,30000;1,14333;524,42094;0,00516
34,40000;1,14672;525,87483;0,00518
34,50000;1,15006;526,99344;0,00520
34,60000;1,15333;529,73209;0,00522
34,70000;1,15667;530,92279;0,00524
34,80000;1,16003;533,47652;0,00526
34,90000;1,16336;534,54814;0,00528
35,00000;1,16669;536,30602;0,00530
35,10000;1,17000;539,09477;0,00532
35,20000;1,17330;539,73086;0,00534
35,30000;1,17658;542,43184;0,00536
35,40000;1,17997;544,09886;0,00538
35,50000;1,18333;544,36517;0,00540
35,60000;1,18669;546,51783;0,00542
35,70000;1,19003;548,18797;0,00544
35,80000;1,19336;550,87018;0,00546
35,90000;1,19667;551,95745;0,00548
36,00000;1,20003;554,12892;0,00550
36,10000;1,20339;556,01210;0,00552
36,20000;1,20675;557,60075;0,00554
36,30000;1,21006;559,09855;0,00556
36,40000;1,21333;560,50858;0,00558
36,50000;1,21664;562,47325;0,00560
36,60000;1,21991;563,89580;0,00562
36,70000;1,22330;565,49702;0,00564
36,80000;1,22664;567,34574;0,00566
36,90000;1,23000;569,12238;0,00568
37,00000;1,23333;570,99615;0,00570
37,10000;1,23667;573,05167;0,00572
37,20000;1,23997;574,37713;0,00574
37,30000;1,24330;576,68020;0,00576
37,40000;1,24669;577,33506;0,00578
37,50000;1,25008;579,46583;0,00580
37,60000;1,25342;580,80065;0,00582
37,70000;1,25672;582,13864;0,00584
37,80000;1,26003;584,93363;0,00586
37,90000;1,26325;585,91128;0,00588
38,00000;1,26658;587,47800;0,00590
38,10000;1,26994;589,74656;0,00592
38,20000;1,27330;590,55812;0,00594
38,30000;1,27667;592,48833;0,00596
38,40000;1,28000;594,02683;0,00598
38,50000;1,28333;596,18265;0,00600
38,60000;1,28661;597,72427;0,00602
38,70000;1,29000;599,48526;0,00604
38,80000;1,29339;601,55648;0,00606
38,90000;1,29672;602,69078;0,00608
39,00000;1,30008;605,05965;0,00611
39,10000;1,30339;605,77407;0,00612
39,20000;1,30667;608,45939;0,00615
39,30000;1,30994;609,95091;0,00617
39,40000;1,31330;612,23833;0,00619
39,50000;1,31667;613,00285;0,00621
39,60000;1,31997;615,15551;0,00623
39,70000;1,32333;617,79073;0,00625
39,80000;1,32664;619,84938;0,00627
39,90000;1,32991;620,58577;0,00629
40,00000;1,33325;623,06118;0,00631
40,10000;1,33661;624,26440;0,00633
40,20000;1,33994;626,28547;0,00635
40,30000;1,34327;628,39426;0,00638
40,40000;1,34669;629,57555;0,00640
40,50000;1,35006;631,78148;0,00642
40,60000;1,35333;633,73046;0,00644
40,70000;1,35669;635,48833;0,00646
40,80000;1,36006;637,73501;0,00649
40,90000;1,36339;639,29856;0,00650
41,00000;1,36669;640,58639;0,00652
41,10000;1,37000;642,98036;0,00655
41,20000;1,37330;644,03317;0,00657
41,30000;1,37661;646,03542;0,00659
41,40000;1,38000;647,90607;0,00661
41,50000;1,38342;650,17156;0,00663
41,60000;1,38675;651,57847;0,00665
41,70000;1,39008;652,98849;0,00667
41,80000;1,39339;655,26650;0,00670
41,90000;1,39667;657,10270;0,00672
42,00000;1,39997;658,91067;0,00674
42,10000;1,40333;660,34892;0,00676
42,20000;1,40667;661,91875;0,00678
42,30000;1,41000;664,45684;0,00680
42,40000;1,41330;665,56609;0,00682
42,50000;1,41661;667,94436;0,00684
42,60000;1,41991;669,41706;0,00686
42,70000;1,42327;671,46947;0,00688
42,80000;1,42664;672,75418;0,00691
42,90000;1,43000;674,64360;0,00693
43,00000;1,43333;676,25418;0,00695
43,10000;1,43667;677,87729;0,00697
43,20000;1,43997;679,51609;0,00699
43,30000;1,44327;681,28021;0,00701
43,40000;1,44667;682,49283;0,00703
43,50000;1,45003;685,26594;0,00705
43,60000;1,45339;685,90827;0,00707
43,70000;1,45672;688,17688;0,00709
43,80000;1,46003;689,64646;0,00711
43,90000;1,46330;690,57080;0,00714
44,00000;1,46661;693,19038;0,00716
44,10000;1,47000;695,07356;0,00718
44,20000;1,47333;696,38644;0,00720
44,30000;1,47667;698,46390;0,00722
44,40000;1,47997;699,57944;0,00724
44,50000;1,48330;701,53782;0,00726
44,60000;1,48661;703,25490;0,00728
44,70000;1,49000;704,44248;0,00730
44,80000;1,49339;707,28138;0,00732
44,90000;1,49672;708,44386;0,00734
45,00000;1,50006;710,38660;0,00736
45,10000;1,50339;711,34227;0,00738
45,20000;1,50666;713,09702;0,00741
45,30000;1,50994;715,27162;0,00743
45,40000;1,51330;715,90454;0,00745
45,50000;1,51666;717,27699;0,00747
45,60000;1,52000;719,48292;0,00749
45,70000;1,52336;720,56712;0,00751
45,80000;1,52669;722,73854;0,00753
45,90000;1,52997;724,08593;0,00755
46,00000;1,53327;726,37647;0,00757
46,10000;1,53664;727,33532;0,00759
46,20000;1,54000;728,63568;0,00761
46,30000;1,54336;730,59094;0,00763
46,40000;1,54669;731,92888;0,00765
46,50000;1,55003;733,19483;0,00767
46,60000;1,55327;735,31927;0,00769
46,70000;1,55664;736,46298;0,00771
46,80000;1,56003;737,88553;0,00772
46,90000;1,56336;739,74053;0,00775
47,00000;1,56669;740,58343;0,00776
47,10000;1,57000;743,14345;0,00778
47,20000;1,57330;743,97377;0,00780
47,30000;1,57661;745,29611;0,00782
47,40000;1,57997;746,51497;0,00784
47,50000;1,58336;747,79028;0,00786
47,60000;1,58672;748,75224;0,00788
47,70000;1,59006;750,37223;0,00789
47,80000;1,59336;752,46850;0,00791
47,90000;1,59664;752,23977;0,00793
48,00000;1,59997;754,96896;0,00794
48,10000;1,60333;755,43588;0,00796
48,20000;1,60669;756,89289;0,00798
48,30000;1,61003;758,36247;0,00800
48,40000;1,61336;759,47484;0,00802
48,50000;1,61664;761,02274;0,00803
48,60000;1,61991;761,81553;0,00805
48,70000;1,62325;764,08098;0,00807
48,80000;1,62664;765,32182;0,00809
48,90000;1,63000;766,12397;0,00811
49,00000;1,63336;767,32719;0,00812
49,10000;1,63666;769,19161;0,00814
49,20000;1,63994;770,26011;0,00816
49,30000;1,64325;771,12806;0,00818
49,40000;1,64666;773,10209;0,00819
49,50000;1,65003;774,29595;0,00821
49,60000;1,65339;775,21717;0,00823
49,70000;1,65675;777,08154;0,00825
49,80000;1,66008;778,48849;0,00827
49,90000;1,66336;780,49074;0,00829
50,00000;1,66666;781,22080;0,00830
50,10000;1,67006;783,21369;0,00832
50,20000;1,67339;784,01268;0,00834
50,30000;1,67672;785,51043;0,00836
50,40000;1,68006;786,17791;0,00838
50,50000;1,68339;787,92945;0,00839
50,60000;1,68661;789,37393;0,00841
50,70000;1,68997;790,44243;0,00843
50,80000;1,69330;791,96841;0,00845
50,90000;1,69669;792,84897;0,00847
51,00000;1,70003;795,02352;0,00848
51,10000;1,70336;795,80061;0,00850
51,20000;1,70666;796,58711;0,00852
51,30000;1,70994;797,67751;0,00854
51,40000;1,71330;799,11891;0,00855
51,50000;1,71666;800,88926;0,00857
51,60000;1,71997;802,85706;0,00859
51,70000;1,72333;804,05092;0,00861
51,80000;1,72666;805,11319;0,00862
51,90000;1,72991;806,55143;0,00864
52,00000;1,73325;807,40992;0,00866
52,10000;1,73661;808,96104;0,00868
52,20000;1,73997;809,92607;0,00870
52,30000;1,74333;811,26411;0,00871
52,40000;1,74669;812,73364;0,00873
52,50000;1,75003;814,63568;0,00875
52,60000;1,75330;815,03671;0,00877
52,70000;1,75666;817,11104;0,00879
52,80000;1,76006;818,01033;0,00881
52,90000;1,76339;820,19120;0,00882
53,00000;1,76669;821,05920;0,00884
53,10000;1,77000;822,27178;0,00886
53,20000;1,77330;822,76063;0,00887
53,30000;1,77661;825,12945;0,00889
53,40000;1,77997;826,42669;0,00891
53,50000;1,78333;827,59866;0,00893
53,60000;1,78669;829,11523;0,00895
53,70000;1,79005;830,24008;0,00896
53,80000;1,79339;831,92904;0,00898
53,90000;1,79666;833,09151;0,00900
54,00000;1,80000;834,16002;0,00902
54,10000;1,80339;835,78313;0,00904
54,20000;1,80675;836,35654;0,00905
54,30000;1,81008;837,43762;0,00907
54,40000;1,81339;838,75358;0,00909
54,50000;1,81669;840,62116;0,00911
54,60000;1,81994;841,49223;0,00912
54,70000;1,82327;842,63906;0,00914
54,80000;1,82664;843,60102;0,00916
54,90000;1,82997;844,98599;0,00918
55,00000;1,83330;847,29530;0,00920
55,10000;1,83664;848,30746;0,00922
55,20000;1,83991;849,51697;0,00923
55,30000;1,84322;850,25327;0,00925
55,40000;1,84664;852,50307;0,00927
55,50000;1,85003;853,18619;0,00928
55,60000;1,85339;854,68711;0,00930
55,70000;1,85672;855,68978;0,00932
55,80000;1,86005;857,11861;0,00934
55,90000;1,86333;858,25296;0,00936
56,00000;1,86664;859,83844;0,00937
56,10000;1,87000;860,81298;0,00939
56,20000;1,87336;861,44898;0,00941
56,30000;1,87666;863,07842;0,00943
56,40000;1,88000;864,30358;0,00944
56,50000;1,88333;866,12720;0,00946
56,60000;1,88661;867,32730;0,00948
56,70000;1,88997;868,50552;0,00950
56,80000;1,89336;870,30726;0,00952
56,90000;1,89672;871,83323;0,00954
57,00000;1,90005;872,35337;0,00955
57,10000;1,90336;873,24325;0,00957
57,20000;1,90664;874,53108;0,00959
57,30000;1,90994;875,75940;0,00961
57,40000;1,91330;877,60501;0,00962
57,50000;1,91666;878,95552;0,00964
57,60000;1,92000;879,63231;0,00966
57,70000;1,92336;881,52802;0,00967
57,80000;1,92666;882,02627;0,00969
57,90000;1,92991;883,88752;0,00971
58,00000;1,93325;884,68334;0,00973
58,10000;1,93661;886,33467;0,00975
58,20000;1,94000;886,72321;0,00976
58,30000;1,94333;888,28057;0,00978
58,40000;1,94672;890,29847;0,00980
58,50000;1,95008;891,39519;0,00982
58,60000;1,95336;892,59837;0,00983
58,70000;1,95675;893,92075;0,00985
58,80000;1,96008;894,62576;0,00987
58,90000;1,96339;896,90061;0,00989
59,00000;1,96669;897,17321;0,00990
59,10000;1,97000;898,57699;0,00992
59,20000;1,97330;899,57658;0,00994
59,30000;1,97658;901,22158;0,00996
59,40000;1,97994;902,08957;0,00998
59,50000;1,98333;903,24264;0,00999
59,60000;1,98666;905,07260;0,01001
59,70000;1,99003;906,41370;0,01003
59,80000;1,99336;906,55154;0,01005
59,90000;1,99666;908,17781;0,01007
60,00000;1,99997;909,93568;0,01008
60,10000;2,00336;910,96340;0,01010
60,20000;2,00672;912,16043;0,01012
60,30000;2,01005;912,67740;0,01013
60,40000;2,01336;914,21902;0,01015
60,50000;2,01666;915,51319;0,01017
60,60000;2,01991;916,53466;0,01018
60,70000;2,02325;918,48681;0,01020
60,80000;2,02664;919,75890;0,01022
60,90000;2,03000;920,81176;0,01024
61,00000;2,03333;921,79570;0,01025
61,10000;2,03666;922,65736;0,01027
61,20000;2,03994;924,18334;0,01029
61,30000;2,04325;925,73753;0,01031
61,40000;2,04661;926,74019;0,01033
61,50000;2,05000;927,59253;0,01034
61,60000;2,05339;928,59836;0,01036
61,70000;2,05675;929,92373;0,01037
61,80000;2,06008;931,65031;0,01039
61,90000;2,06336;931,87280;0,01041
62,00000;2,06664;934,43273;0,01043
62,10000;2,07000;935,27250;0,01045
62,20000;2,07333;936,31595;0,01046
62,30000;2,07666;936,85491;0,01048
62,40000;2,08000;937,73231;0,01050
62,50000;2,08333;939,74080;0,01052
62,60000;2,08661;941,29499;0,01053
62,70000;2,09000;942,44806;0,01055
62,80000;2,09339;943,27219;0,01057
62,90000;2,09675;944,65092;0,01059
63,00000;2,10011;945,69745;0,01060
63,10000;2,10342;946,85368;0,01062
63,20000;2,10669;947,31115;0,01064
63,30000;2,10994;949,15675;0,01066
63,40000;2,11330;950,28160;0,01067
63,50000;2,11666;951,10890;0,01069
63,60000;2,11997;953,05787;0,01071
63,70000;2,12330;953,90705;0,01072
63,80000;2,12664;955,17915;0,01074
63,90000;2,12988;956,71145;0,01076
64,00000;2,13322;957,57311;0,01078
64,10000;2,13664;958,29377;0,01079
64,20000;2,14000;959,75082;0,01081
64,30000;2,14333;960,94469;0,01083
64,40000;2,14669;962,15736;0,01085
64,50000;2,15005;963,54540;0,01086
64,60000;2,15333;964,57945;0,01088
64,70000;2,15672;966,07096;0,01090
64,80000;2,16005;967,82884;0,01092
64,90000;2,16336;968,68742;0,01093
65,00000;2,16669;968,80328;0,01095
65,10000;2,17003;971,60144;0,01097
65,20000;2,17330;972,06207;0,01099
65,30000;2,17661;973,91391;0,01100
65,40000;2,17997;974,24611;0,01102
65,50000;2,18333;975,26759;0,01104
65,60000;2,18666;977,40460;0,01106
65,70000;2,19003;978,29131;0,01107
65,80000;2,19336;978,73313;0,01109
65,90000;2,19664;980,55368;0,01111
66,00000;2,20000;981,71933;0,01113
66,10000;2,20336;983,06984;0,01114
66,20000;2,20672;983,96596;0,01116
66,30000;2,21005;985,89929;0,01118
66,40000;2,21336;985,62045;0,01120
66,50000;2,21666;987,00542;0,01122
66,60000;2,21991;988,58150;0,01123
66,70000;2,22327;990,90021;0,01125
66,80000;2,22664;991,22925;0,01127
66,90000;2,23003;991,92802;0,01129
67,00000;2,23336;993,36309;0,01130
67,10000;2,23669;994,69172;0,01132
67,20000;2,24000;995,58467;0,01134
67,30000;2,24333;997,01043;0,01135
67,40000;2,24675;997,87833;0,01137
67,50000;2,25011;999,64561;0,01139
67,60000;2,25342;1001,21861;0,01141
67,70000;2,25672;1002,48447;0,01143
67,80000;2,26003;1003,43712;0,01144
67,90000;2,26327;1004,57137;0,01146
68,00000;2,26658;1005,25133;0,01148
68,10000;2,26994;1006,74601;0,01150
68,20000;2,27333;1007,35389;0,01151
68,30000;2,27666;1008,79520;0,01153
68,40000;2,28000;1009,86371;0,01155
68,50000;2,28333;1011,00747;0,01157
68,60000;2,28661;1012,45819;0,01159
68,70000;2,28997;1013,77741;0,01160
68,80000;2,29336;1015,18743;0,01162
68,90000;2,29672;1016,27158;0,01164
69,00000;2,30008;1017,25860;0,01166
69,10000;2,30339;1018,56524;0,01168
69,20000;2,30666;1019,49591;0,01169
69,30000;2,30994;1021,47311;0,01171
69,40000;2,31330;1021,93682;0,01173
69,50000;2,31666;1023,21524;0,01174
69,60000;2,31997;1025,44622;0,01176
69,70000;2,32333;1025,88180;0,01178
69,80000;2,32666;1026,51166;0,01180
69,90000;2,32991;1027,09755;0,01181
70,00000;2,33325;1028,76769;0,01183
70,10000;2,33661;1030,06810;0,01185
70,20000;2,33997;1031,26187;0,01186
70,30000;2,34330;1031,61596;0,01188
70,40000;2,34666;1033,19520;0,01190
70,50000;2,35005;1034,57076;0,01192
70,60000;2,35336;1036,36310;0,01194
70,70000;2,35669;1037,36585;0,01196
70,80000;2,36005;1038,57843;0,01197
70,90000;2,36339;1039,50277;0,01199
71,00000;2,36669;1040,26739;0,01201
71,10000;2,37000;1042,40440;0,01203
71,20000;2,37330;1042,67700;0,01204
71,30000;2,37661;1043,62639;0,01206
71,40000;2,37997;1044,91739;0,01208
71,50000;2,38339;1046,13630;0,01210
71,60000;2,38672;1047,65911;0,01212
71,70000;2,39008;1049,02526;0,01213
71,80000;2,39342;1049,99039;0,01215
71,90000;2,39666;1051,17792;0,01217
72,00000;2,39997;1052,87628;0,01219
72,10000;2,40333;1053,33691;0,01220
72,20000;2,40669;1054,91923;0,01222
72,30000;2,41000;1056,67394;0,01224
72,40000;2,41333;1056,97475;0,01226
72,50000;2,41664;1057,50123;0,01228
72,60000;2,41988;1059,60369;0,01229
72,70000;2,42325;1060,36197;0,01231
72,80000;2,42664;1061,47751;0,01233
72,90000;2,43000;1062,77475;0,01235
73,00000;2,43336;1063,15389;0,01236
73,10000;2,43669;1064,64224;0,01238
73,20000;2,43997;1066,03662;0,01240
73,30000;2,44327;1067,11453;0,01242
73,40000;2,44669;1068,11728;0,01244
73,50000;2,45003;1070,12261;0,01246
73,60000;2,45339;1070,66156;0,01247
73,70000;2,45672;1071,93692;0,01249
73,80000;2,46003;1073,42210;0,01251
73,90000;2,46330;1074,40604;0,01252
74,00000;2,46661;1075,10481;0,01254
74,10000;2,46997;1076,51800;0,01256
74,20000;2,47333;1076,92843;0,01258
74,30000;2,47664;1078,38549;0,01260
74,40000;2,47997;1080,33763;0,01261
74,50000;2,48327;1080,30625;0,01263
74,60000;2,48658;1082,27404;0,01265
74,70000;2,49000;1084,22302;0,01267
74,80000;2,49339;1084,74009;0,01269
74,90000;2,49672;1085,20072;0,01271
75,00000;2,50008;1086,10624;0,01272
75,10000;2,50339;1087,89857;0,01274
75,20000;2,50666;1088,58161;0,01276
75,30000;2,50994;1090,13272;0,01278
75,40000;2,51330;1091,09152;0,01280
75,50000;2,51666;1092,53293;0,01281
75,60000;2,52003;1093,69224;0,01283
75,70000;2,52336;1095,15553;0,01285
75,80000;2,52669;1095,92956;0,01287
75,90000;2,53000;1097,30195;0,01289
76,00000;2,53330;1098,02270;0,01290
76,10000;2,53666;1099,35440;0,01292
76,20000;2,54003;1100,95236;0,01294
76,30000;2,54336;1101,31903;0,01296
76,40000;2,54669;1102,29040;0,01297
76,50000;2,55003;1104,12966;0,01299
76,60000;2,55330;1104,55584;0,01301
76,70000;2,55666;1105,58989;0,01303
76,80000;2,56003;1107,20983;0,01305
76,90000;2,56336;1107,39470;0,01307
77,00000;2,56669;1109,49725;0,01308
77,10000;2,57003;1110,54070;0,01310
77,20000;2,57330;1111,65931;0,01312
77,30000;2,57658;1111,77843;0,01314
77,40000;2,58000;1114,60164;0,01315
77,50000;2,58336;1114,88048;0,01317
77,60000;2,58672;1115,82680;0,01319
77,70000;2,59005;1117,70052;0,01321
77,80000;2,59336;1117,95748;0,01323
77,90000;2,59664;1119,83446;0,01325
78,00000;2,59997;1121,08784;0,01327
78,10000;2,60333;1122,02158;0,01328
78,20000;2,60669;1122,82997;0,01330
78,30000;2,61003;1123,85778;0,01332
78,40000;2,61336;1125,06095;0,01334
78,50000;2,61666;1126,43652;0,01335
78,60000;2,61991;1127,53641;0,01337
78,70000;2,62327;1127,54889;0,01339
78,80000;2,62664;1128,86187;0,01341
78,90000;2,63000;1130,88917;0,01343
79,00000;2,63336;1132,12690;0,01345
79,10000;2,63666;1132,77230;0,01346
79,20000;2,63994;1134,11658;0,01348
79,30000;2,64324;1135,57680;0,01350
79,40000;2,64666;1136,13447;0,01352
79,50000;2,65005;1137,63539;0,01354
79,60000;2,65342;1138,10860;0,01355
79,70000;2,65672;1139,09561;0,01357
79,80000;2,66005;1141,16995;0,01359
79,90000;2,66330;1141,92506;0,01361
80,00000;2,66664;1142,62700;0,01363
80,10000;2,67000;1144,51330;0,01365
80,20000;2,67339;1144,95195;0,01367
80,30000;2,67672;1146,00798;0,01368
80,40000;2,68005;1147,58089;0,01370
80,50000;2,68336;1148,34858;0,01372
80,60000;2,68658;1150,35716;0,01374
80,70000;2,68997;1151,03079;0,01376
80,80000;2,69333;1151,82670;0,01377
80,90000;2,69669;1153,38089;0,01379
81,00000;2,70005;1154,38048;0,01381
81,10000;2,70339;1155,17639;0,01383
81,20000;2,70666;1156,79009;0,01385
81,30000;2,70994;1157,74572;0,01387
81,40000;2,71330;1158,96780;0,01388
81,50000;2,71666;1160,32772;0,01390
81,60000;2,72003;1161,42435;0,01392
81,70000;2,72336;1162,39265;0,01394
81,80000;2,72669;1163,51750;0,01396
81,90000;2,72997;1165,04040;0,01398
82,00000;2,73324;1165,46024;0,01399
82,10000;2,73661;1166,49112;0,01401
82,20000;2,74000;1168,07036;0,01403
82,30000;2,74333;1168,46524;0,01405
82,40000;2,74669;1170,19173;0,01407
82,50000;2,75003;1171,47015;0,01409
82,60000;2,75330;1172,79245;0,01411
82,70000;2,75666;1173,34705;0,01413
82,80000;2,76003;1174,83232;0,01414
82,90000;2,76336;1175,29295;0,01416
83,00000;2,76669;1176,48989;0,01418
83,10000;2,77003;1178,04091;0,01420
83,20000;2,77330;1179,07496;0,01422
83,30000;2,77658;1179,57946;0,01424
83,40000;2,77997;1181,64755;0,01426
83,50000;2,78333;1182,57189;0,01428
83,60000;2,78669;1183,02312;0,01429
83,70000;2,79005;1184,27649;0,01431
83,80000;2,79339;1185,57056;0,01433
83,90000;2,79666;1186,46668;0,01435
84,00000;2,79997;1188,24653;0,01437
84,10000;2,80339;1188,99224;0,01439
84,20000;2,80672;1190,01688;0,01441
84,30000;2,81008;1191,73406;0,01443
84,40000;2,81342;1192,22282;0,01444
84,50000;2,81672;1193,47619;0,01446
84,60000;2,81997;1194,42251;0,01448
84,70000;2,82330;1195,63201;0,01450
84,80000;2,82663;1196,51249;0,01452
84,90000;2,82997;1198,01341;0,01454
85,00000;2,83330;1198,68396;0,01455
85,10000;2,83663;1200,33836;0,01457
85,20000;2,83991;1201,59807;0,01459
85,30000;2,84322;1202,20277;0,01461
85,40000;2,84663;1203,23366;0,01463
85,50000;2,85003;1204,56852;0,01465
85,60000;2,85339;1205,61821;0,01467
85,70000;2,85672;1206,24173;0,01469
85,80000;2,86005;1207,90880;0,01470
85,90000;2,86330;1209,22793;0,01473
86,00000;2,86661;1209,65410;0,01474
86,10000;2,87000;1211,35870;0,01476
86,20000;2,87336;1211,95400;0,01478
86,30000;2,87669;1213,10083;0,01480
86,40000;2,88003;1215,27854;0,01482
86,50000;2,88333;1215,58877;0,01484
86,60000;2,88661;1217,06147;0,01485
86,70000;2,88997;1217,90124;0,01487
86,80000;2,89336;1218,60318;0,01489
86,90000;2,89672;1219,78754;0,01491
87,00000;2,90005;1220,99705;0,01493
87,10000;2,90336;1222,40400;0,01495
87,20000;2,90666;1223,57588;0,01497
87,30000;2,90997;1224,60369;0,01499
87,40000;2,91333;1225,88212;0,01501
87,50000;2,91666;1226,71248;0,01503
87,60000;2,92003;1228,24153;0,01505
87,70000;2,92336;1229,16596;0,01506
87,80000;2,92666;1230,20625;0,01508
87,90000;2,92994;1231,56924;0,01510
88,00000;2,93324;1231,84817;0,01512
88,10000;2,93661;1233,47435;0,01514
88,20000;2,93997;1234,02895;0,01516
88,30000;2,94333;1235,32619;0,01518
88,40000;2,94669;1236,92118;0,01520
88,50000;2,95005;1237,82670;0,01521
88,60000;2,95336;1238,93907;0,01523
88,70000;2,95672;1239,48427;0,01525
88,80000;2,96008;1241,14184;0,01527
88,90000;2,96342;1242,01924;0,01529
89,00000;2,96672;1243,40737;0,01531
89,10000;2,97003;1245,17456;0,01533
89,20000;2,97327;1245,42844;0,01535
89,30000;2,97655;1245,76055;0,01536
89,40000;2,97994;1247,28028;0,01538
89,50000;2,98333;1248,14818;0,01540
89,60000;2,98666;1249,30441;0,01542
89,70000;2,99002;1250,64868;0,01544
89,80000;2,99336;1252,03365;0,01546
89,90000;2,99666;1252,41904;0,01548
90,00000;3,00002;1254,43386;0,01550
90,10000;3,00339;1254,75349;0,01552
90,20000;3,00675;1255,48672;0,01553
90,30000;3,01008;1257,10350;0,01555
90,40000;3,01339;1257,96525;0,01557
90,50000;3,01666;1259,12456;0,01559
90,60000;3,01991;1260,40308;0,01561
90,70000;3,02327;1261,35871;0,01563
90,80000;3,02663;1261,99173;0,01565
90,90000;3,03000;1263,68683;0,01567
91,00000;3,03333;1264,93713;0,01568
91,10000;3,03666;1265,56689;0,01570
91,20000;3,03994;1266,02445;0,01572
91,30000;3,04324;1267,56914;0,01574
91,40000;3,04658;1268,86955;0,01576
91,50000;3,04997;1269,58080;0,01578
91,60000;3,05336;1271,13815;0,01580
91,70000;3,05672;1271,72414;0,01582
91,80000;3,06008;1273,37230;0,01584
91,90000;3,06333;1274,03028;0,01586
92,00000;3,06663;1275,28058;0,01588
92,10000;3,07000;1276,76893;0,01590
92,20000;3,07333;1277,00390;0,01591
92,30000;3,07666;1278,15707;0,01593
92,40000;3,08000;1279,90860;0,01595
92,50000;3,08333;1280,57292;0,01597
92,60000;3,08661;1281,61320;0,01599
92,70000;3,09000;1283,00134;0,01601
92,80000;3,09339;1284,20452;0,01603
92,90000;3,09678;1284,98478;0,01605
93,00000;3,10014;1286,31648;0,01607
93,10000;3,10344;1287,45707;0,01609
93,20000;3,10672;1288,00543;0,01611
93,30000;3,10997;1289,44051;0,01613
93,40000;3,11330;1291,27670;0,01615
93,50000;3,11663;1291,67773;0,01617
93,60000;3,11997;1292,77762;0,01619
93,70000;3,12330;1293,18805;0,01621
93,80000;3,12661;1294,71403;0,01623
93,90000;3,12988;1296,24633;0,01625
94,00000;3,13324;1297,13621;0,01627
94,10000;3,13661;1298,60891;0,01629
94,20000;3,13997;1299,43928;0,01630
94,30000;3,14333;1299,94377;0,01633
94,40000;3,14669;1301,42588;0,01634
94,50000;3,15005;1302,79204;0,01636
94,60000;3,15333;1302,98315;0,01638
94,70000;3,15669;1304,80994;0,01640
94,80000;3,16005;1305,83774;0,01642
94,90000;3,16339;1306,63672;0,01644
95,00000;3,16669;1307,47966;0,01646
95,10000;3,17000;1308,83949;0,01648
95,20000;3,17327;1309,44746;0,01650
95,30000;3,17658;1310,37487;0,01652
95,40000;3,17994;1311,27425;0,01654
95,50000;3,18333;1312,49307;0,01656
95,60000;3,18666;1313,98775;0,01658
95,70000;3,19000;1315,19726;0,01660
95,80000;3,19336;1315,83652;0,01662
95,90000;3,19666;1316,87364;0,01664
96,00000;3,20000;1317,69143;0,01666
96,10000;3,20339;1319,05759;0,01668
96,20000;3,20675;1320,24521;0,01670
96,30000;3,21005;1321,14133;0,01672
96,40000;3,21336;1322,08765;0,01674
96,50000;3,21666;1323,07466;0,01676
96,60000;3,21991;1324,56310;0,01678
96,70000;3,22327;1325,02364;0,01679
96,80000;3,22666;1326,64051;0,01682
96,90000;3,23000;1327,91586;0,01683
97,00000;3,23333;1328,47987;0,01686
97,10000;3,23666;1330,33795;0,01687
97,20000;3,23997;1330,82680;0,01689
97,30000;3,24327;1331,58192;0,01691
97,40000;3,24669;1332,50002;0,01694
97,50000;3,25011;1333,68447;0,01696
97,60000;3,25342;1334,17640;0,01698
97,70000;3,25675;1335,71178;0,01700
97,80000;3,26002;1337,16566;0,01702
97,90000;3,26327;1337,59808;0,01703
98,00000;3,26658;1339,16792;0,01705
98,10000;3,26994;1340,10483;0,01707
98,20000;3,27330;1340,27721;0,01709
98,30000;3,27666;1342,20421;0,01711
98,40000;3,28000;1343,35738;0,01713
98,50000;3,28333;1343,70513;0,01715
98,60000;3,28661;1345,30012;0,01717
98,70000;3,29000;1346,55973;0,01719
98,80000;3,29336;1347,02036;0,01721
98,90000;3,29675;1348,24235;0,01723
99,00000;3,30008;1349,33908;0,01725
99,10000;3,30339;1350,71147;0,01727
99,20000;3,30666;1352,12783;0,01729
99,30000;3,30994;1353,14930;0,01731
99,40000;3,31330;1353,29654;0,01733
99,50000;3,31666;1354,05799;0,01735
99,60000;3,31997;1355,66546;0,01737
99,70000;3,32330;1356,59603;0,01739
99,80000;3,32663;1357,94654;0,01741
99,90000;3,32991;1359,02762;0,01743
100,00000;3,33322;1359,89869;0,01745
100,10000;3,33661;1361,92916;0,01747
100,20000;3,33994;1362,05759;0,01749
100,30000;3,34327;1363,27026;0,01751
100,40000;3,34663;1363,93458;0,01753
100,50000;3,35005;1365,03754;0,01755
100,60000;3,35336;1366,71076;0,01758
100,70000;3,35669;1366,95514;0,01759
100,80000;3,36005;1368,64726;0,01762
100,90000;3,36339;1369,06710;0,01764
101,00000;3,36672;1370,02282;0,01766
101,10000;3,37005;1371,48611;0,01768
101,20000;3,37330;1372,99644;0,01770
101,30000;3,37661;1373,63877;0,01772
101,40000;3,38000;1374,61955;0,01774
101,50000;3,38339;1375,73499;0,01776
101,60000;3,38675;1376,67824;0,01778
101,70000;3,39011;1377,89082;0,01781
101,80000;3,39341;1377,92844;0,01783
101,90000;3,39666;1379,29777;0,01785
102,00000;3,39997;1380,62630;0,01787
102,10000;3,40333;1382,05513;0,01789
102,20000;3,40666;1382,22119;0,01791
102,30000;3,41000;1384,09818;0,01793
102,40000;3,41330;1384,46474;0,01795
102,50000;3,41661;1385,54582;0,01797
102,60000;3,41988;1387,00912;0,01798
102,70000;3,42324;1387,22844;0,01801
102,80000;3,42663;1388,53509;0,01802
102,90000;3,42997;1389,83550;0,01805
103,00000;3,43333;1391,23611;0,01807
103,10000;3,43666;1392,20115;0,01809
103,20000;3,43997;1393,05033;0,01811
103,30000;3,44327;1393,69266;0,01813
103,40000;3,44666;1394,62017;0,01815
103,50000;3,45005;1396,52845;0,01817
103,60000;3,45339;1396,58172;0,01819
103,70000;3,45672;1397,69726;0,01821
103,80000;3,46002;1398,91300;0,01823
103,90000;3,46330;1400,55176;0,01825
104,00000;3,46661;1400,98417;0,01827
104,10000;3,47000;1403,29981;0,01829
104,20000;3,47333;1403,04593;0,01831
104,30000;3,47663;1403,80422;0,01833
104,40000;3,47997;1404,60953;0,01835
104,50000;3,48333;1406,05718;0,01838
104,60000;3,48663;1406,49276;0,01840
104,70000;3,49000;1407,93100;0,01842
104,80000;3,49341;1408,50442;0,01844
104,90000;3,49675;1409,88939;0,01846
105,00000;3,50008;1411,29941;0,01848
105,10000;3,50339;1412,09848;0,01850
105,20000;3,50666;1413,59307;0,01852
105,30001;3,50994;1414,01924;0,01854
105,40001;3,51330;1415,05329;0,01856
105,50001;3,51666;1415,87425;0,01858
105,60001;3,52000;1417,27170;0,01860
105,70001;3,52336;1418,28693;0,01862
105,80001;3,52669;1418,97630;0,01864
105,90001;3,52997;1420,63703;0,01866
106,00001;3,53330;1420,45841;0,01868
106,10001;3,53663;1422,48264;0,01870
106,20001;3,54000;1422,77712;0,01872
106,30001;3,54333;1423,77988;0,01875
106,40001;3,54669;1425,19614;0,01877
106,50001;3,55002;1426,28029;0,01879
106,60001;3,55327;1427,07312;0,01881
106,70001;3,55663;1427,88151;0,01883
106,80001;3,56002;1429,49205;0,01885
106,90001;3,56339;1430,22528;0,01887
107,00001;3,56669;1430,85513;0,01889
107,10001;3,57000;1432,40616;0,01891
107,20001;3,57330;1432,80094;0,01893
107,30001;3,57661;1433,75350;0,01895
107,40001;3,57997;1434,88161;0,01897
107,50001;3,58336;1436,74910;0,01900
107,60001;3,58672;1437,23795;0,01902
107,70001;3,59005;1437,97109;0,01904
107,80001;3,59339;1438,89552;0,01906
107,90001;3,59666;1439,85432;0,01908
108,00001;3,60000;1441,43673;0,01910
108,10001;3,60336;1442,11035;0,01912
108,20001;3,60669;1443,26352;0,01914
108,30001;3,61002;1444,27875;0,01917
108,40001;3,61336;1444,73305;0,01919
108,50001;3,61663;1446,46270;0,01921
108,60001;3,61988;1447,18653;0,01923
108,70001;3,62322;1448,03254;0,01925
108,80001;3,62661;1448,68745;0,01927
108,90001;3,63000;1450,02538;0,01929
109,00001;3,63333;1451,16290;0,01931
109,10001;3,63666;1451,94307;0,01933
109,20001;3,63994;1453,24655;0,01935
109,30001;3,64324;1453,84511;0,01937
109,40001;3,64663;1455,08908;0,01940
109,50001;3,65005;1456,83745;0,01942
109,60001;3,65341;1457,14143;0,01944
109,70001;3,65675;1457,69920;0,01946
109,80001;3,66008;1458,54205;0,01948
109,90001;3,66333;1460,16208;0,01950
110,00001;3,66666;1461,24000;0,01953
110,10001;3,67002;1463,58376;0,01955
110,20001;3,67339;1463,12313;0,01957
110,30001;3,67672;1463,88458;0,01959
110,40001;3,68005;1465,12855;0,01961
110,50001;3,68339;1466,33172;0,01963
110,60001;3,68661;1466,71096;0,01965
110,70001;3,68997;1467,66035;0,01967
110,80001;3,69330;1469,30227;0,01970
110,90001;3,69666;1470,10125;0,01972
111,00001;3,70002;1470,80626;0,01974
111,10001;3,70336;1472,46392;0,01976
111,20001;3,70666;1473,16577;0,01978
111,30001;3,70994;1474,13397;0,01980
111,40001;3,71330;1474,71996;0,01982
111,50001;3,71666;1475,89501;0,01985
111,60001;3,72000;1476,72845;0,01987
111,70001;3,72336;1478,10718;0,01989
111,80001;3,72669;1479,19450;0,01991
111,90001;3,72994;1480,28182;0,01993
112,00001;3,73327;1480,70483;0,01995
112,10001;3,73661;1482,10861;0,01998
112,20001;3,73997;1482,80421;0,02000
112,30001;3,74333;1483,79439;0,02002
112,40001;3,74669;1484,80646;0,02004
112,50001;3,75002;1486,46086;0,02006
112,60001;3,75330;1487,01863;0,02008
112,70001;3,75666;1487,26618;0,02011
112,80001;3,76002;1488,68561;0,02013
112,90001;3,76339;1489,13367;0,02015
113,00001;3,76669;1489,86690;0,02017
113,10001;3,77000;1491,70943;0,02019
113,20001;3,77330;1492,10105;0,02021
113,30001;3,77661;1493,67405;0,02024
113,40001;3,77997;1494,46363;0,02026
113,50001;3,78333;1495,48827;0,02028
113,60001;3,78669;1496,69778;0,02031
113,70001;3,79005;1497,50626;0,02033
113,80001;3,79341;1499,09174;0,02035
113,90001;3,79666;1499,48029;0,02037
114,00001;3,80002;1500,97804;0,02040
114,10001;3,80339;1501,44808;0,02042
114,20001;3,80675;1502,41945;0,02044
114,30001;3,81008;1503,27170;0,02046
114,40001;3,81339;1503,33121;0,02048
114,50001;3,81669;1505,14869;0,02050
114,60001;3,81994;1505,32098;0,02053
114,70001;3,82330;1506,27038;0,02055
114,80001;3,82663;1508,00319;0,02057
114,90001;3,82997;1508,09092;0,02059
115,00001;3,83330;1509,09359;0,02061
115,10001;3,83663;1510,27180;0,02064
115,20001;3,83991;1511,49072;0,02066
115,30001;3,84322;1512,00462;0,02068
115,40001;3,84663;1513,82824;0,02070
115,50001;3,85002;1514,71812;0,02072
115,60001;3,85339;1515,07221;0,02075
115,70001;3,85675;1516,41332;0,02077
115,80001;3,86005;1517,51945;0,02079
115,90001;3,86333;1518,52211;0,02081
116,00001;3,86663;1519,12682;0,02084
116,10001;3,87000;1520,19225;0,02086
116,20001;3,87336;1521,43929;0,02088
116,30001;3,87666;1522,42640;0,02090
116,40001;3,88000;1523,13141;0,02093
116,50001;3,88333;1524,04951;0,02095
116,60001;3,88661;1525,52221;0,02097
116,70001;3,88997;1525,59113;0,02099
116,80001;3,89333;1527,08888;0,02102
116,90001;3,89672;1527,67794;0,02104
117,00001;3,90005;1528,66505;0,02106
117,10001;3,90336;1529,38571;0,02108
117,20001;3,90663;1530,54502;0,02110
117,30001;3,90994;1531,56966;0,02113
117,40001;3,91330;1532,06168;0,02115
117,50001;3,91666;1533,45913;0,02117
117,60001;3,92000;1534,05759;0,02119
117,70001;3,92333;1535,28284;0,02121
117,80001;3,92666;1536,36066;0,02124
117,90001;3,92991;1536,92467;0,02126
118,00001;3,93324;1537,91802;0,02128
118,10001;3,93661;1538,77661;0,02130
118,20001;3,93997;1539,57559;0,02133
118,30001;3,94333;1540,12712;0,02135
118,40001;3,94669;1542,43018;0,02137
118,50001;3,95005;1542,22334;0,02139
118,60001;3,95339;1543,11014;0,02142
118,70001;3,95675;1545,14369;0,02144
118,80001;3,96011;1544,82722;0,02146
118,90001;3,96341;1546,39389;0,02148
119,00001;3,96675;1547,53765;0,02151
119,10001;3,97002;1548,13612;0,02153
119,20001;3,97330;1549,45524;0,02155
119,30001;3,97658;1550,09134;0,02157
119,40001;3,97994;1551,46690;0,02160
119,50001;3,98333;1552,28786;0,02162
119,60001;3,98663;1553,53500;0,02164
119,70001;3,99002;1554,26506;0,02166
119,80001;3,99336;1555,60616;0,02169
119,90001;3,99666;1556,10442;0,02171
120,00001;3,99997;1557,05698;0,02173
120,10001;4,00336;1557,88735;0,02176
120,20001;4,00669;1559,04358;0,02178
120,30001;4,01005;1559,69532;0,02180
120,40001;4,01336;1560,00238;0,02182
120,50001;4,01669;1561,60984;0,02185
120,60001;4,01991;1562,28356;0,02187
120,70001;4,02327;1562,50913;0,02189
120,80001;4,02663;1564,53960;0,02191
120,90001;4,03000;1564,03817;0,02194
121,00001;4,03333;1565,95893;0,02196
121,10001;4,03666;1566,70474;0,02198
121,20001;4,03994;1567,72621;0,02200
121,30001;4,04324;1568,25576;0,02202
121,40001;4,04661;1568,75085;0,02205
121,50001;4,04997;1570,30188;0,02207
121,60001;4,05336;1572,02221;0,02210
121,70001;4,05675;1572,64564;0,02212
121,80001;4,06011;1574,17487;0,02214
121,90001;4,06339;1574,22815;0,02216
122,00001;4,06666;1575,96711;0,02219
122,10001;4,07002;1576,15822;0,02221
122,20001;4,07336;1577,01056;0,02223
122,30001;4,07669;1577,99441;0,02226
122,40001;4,08002;1578,37681;0,02228
122,50001;4,08336;1579,25729;0,02230
122,60001;4,08663;1581,03704;0,02233
122,70001;4,09000;1581,90504;0,02235
122,80001;4,09339;1582,68530;0,02237
122,90001;4,09675;1583,50300;0,02240
123,00001;4,10011;1584,40862;0,02242
123,10001;4,10341;1585,18255;0,02244
123,20001;4,10669;1585,80299;0,02247
123,30001;4,10994;1586,94349;0,02249
123,40001;4,11330;1587,62969;0,02251
123,50001;4,11666;1589,02407;0,02253
123,60001;4,11997;1589,18072;0,02256
123,70001;4,12330;1590,48736;0,02258
123,80001;4,12663;1591,76905;0,02260
123,90001;4,12988;1592,16374;0,02262
124,00001;4,13319;1592,59941;0,02264
124,10001;4,13660;1594,10648;0,02267
124,20001;4,13997;1594,28827;0,02269
124,30001;4,14333;1595,91138;0,02272
124,40001;4,14669;1597,20555;0,02274
124,50001;4,15005;1597,29943;0,02276
124,60001;4,15336;1598,54665;0,02279
124,70001;4,15672;1599,83449;0,02281
124,80001;4,16008;1600,64604;0,02283
124,90001;4,16339;1600,94369;0,02286
125,00001;4,16669;1601,99646;0,02288
125,10001;4,17002;1603,95186;0,02291
125,20001;4,17330;1603,54748;0,02293
125,30001;4,17660;1605,22088;0,02295
125,40001;4,17997;1605,64072;0,02297
125,50001;4,18333;1606,37386;0,02300
125,60001;4,18663;1607,80270;0,02302
125,70001;4,19000;1608,87446;0,02305
125,80001;4,19333;1609,15330;0,02307
125,90001;4,19663;1609,99931;0,02309
126,00001;4,19997;1611,18377;0,02312
126,10001;4,20339;1611,96701;0,02314
126,20001;4,20675;1613,16097;0,02316
126,30001;4,21008;1613,71864;0,02319
126,40001;4,21336;1614,23255;0,02321
126,50001;4,21666;1615,81486;0,02323
126,60001;4,21991;1615,84318;0,02326
126,70001;4,22327;1617,19359;0,02328
126,80001;4,22663;1618,39686;0,02330
126,90001;4,22999;1618,84185;0,02333
127,00001;4,23336;1619,48111;0,02335
127,10001;4,23666;1620,38039;0,02337
127,20001;4,23997;1621,60862;0,02340
127,30001;4,24330;1622,07242;0,02342
127,40001;4,24672;1623,26936;0,02345
127,50001;4,25011;1624,14350;0,02347
127,60001;4,25341;1625,50975;0,02349
127,70001;4,25672;1625,43450;0,02352
127,80001;4,26002;1626,91977;0,02354
127,90001;4,26327;1628,14185;0,02357
128,00001;4,26660;1628,95024;0,02359
128,10001;4,26994;1629,20710;0,02361
128,20001;4,27330;1630,03448;0,02364
128,30001;4,27666;1630,86783;0,02366
128,40001;4,28002;1631,54788;0,02368
128,50001;4,28336;1633,08941;0,02371
128,60001;4,28663;1633,91046;0,02373
128,70001;4,28997;1634,70637;0,02375
128,80001;4,29336;1635,70587;0,02378
128,90001;4,29672;1635,82806;0,02380
129,00001;4,30008;1636,97805;0,02383
129,10001;4,30341;1637,73634;0,02385
129,20001;4,30666;1638,75781;0,02388
129,30001;4,30994;1639,78562;0,02390
129,40001;4,31330;1640,39042;0,02392
129,50001;4,31666;1641,57487;0,02395
129,60001;4,31999;1642,16068;0,02397
129,70001;4,32333;1642,95658;0,02400
129,80001;4,32666;1643,17600;0,02402
129,90001;4,32994;1644,45136;0,02404
130,00001;4,33324;1644,72070;0,02406
130,10001;4,33660;1646,30320;0,02409
130,20001;4,33994;1646,56639;0,02411
130,30001;4,34327;1647,00504;0,02414
130,40001;4,34663;1648,28356;0,02416
130,50001;4,35005;1649,53377;0,02419
130,60001;4,35333;1650,72437;0,02421
130,70001;4,35669;1651,45770;0,02424
130,80001;4,36008;1652,19083;0,02426
130,90001;4,36339;1652,60453;0,02428
131,00001;4,36672;1653,77632;0,02431
131,10001;4,37002;1654,45320;0,02433
131,20001;4,37330;1655,72222;0,02435
131,30001;4,37658;1656,31752;0,02438
131,40001;4,37997;1657,32652;0,02440
131,50001;4,38336;1657,93449;0,02443
131,60001;4,38675;1659,02805;0,02446
131,70001;4,39011;1660,02437;0,02448
131,80001;4,39341;1660,31271;0,02451
131,90001;4,39666;1661,16189;0,02453
132,00001;4,39999;1661,86374;0,02455
132,10001;4,40333;1663,56526;0,02458
132,20001;4,40669;1664,17938;0,02460
132,30001;4,40999;1664,84676;0,02463
132,40001;4,41333;1665,47652;0,02465
132,50001;4,41666;1666,57325;0,02467
132,60001;4,41991;1667,25013;0,02470
132,70001;4,42327;1667,55095;0,02472
132,80001;4,42663;1668,38747;0,02475
132,90001;4,42999;1669,57509;0,02477
133,00001;4,43333;1670,65300;0,02480
133,10001;4,43666;1671,41762;0,02482
133,20001;4,43997;1672,79933;0,02484
133,30001;4,44327;1672,98745;0,02487
133,40001;4,44669;1673,96497;0,02490
133,50001;4,45005;1674,72959;0,02492
133,60001;4,45339;1674,95515;0,02494
133,70001;4,45672;1676,06436;0,02497
133,80001;4,46005;1676,80401;0,02499
133,90001;4,46330;1677,75955;0,02502
134,00001;4,46660;1678,46773;0,02504
134,10001;4,46997;1679,26364;0,02507
134,20001;4,47330;1680,37601;0,02509
134,30001;4,47663;1681,42263;0,02512
134,40001;4,47997;1681,61057;0,02514
134,50001;4,48327;1682,49421;0,02517
134,60001;4,48658;1683,47508;0,02519
134,70001;4,48999;1684,06405;0,02522
134,80001;4,49338;1685,56180;0,02524
134,90001;4,49675;1686,12581;0,02527
135,00001;4,50008;1686,46742;0,02529
135,10001;4,50339;1688,02161;0,02532
135,20001;4,50669;1688,27847;0,02534
135,30001;4,50997;1688,91139;0,02536
135,40001;4,51333;1690,55331;0,02539
135,50001;4,51666;1690,94503;0,02542
135,60001;4,52002;1691,20505;0,02544
135,70001;4,52338;1691,92888;0,02546
135,80001;4,52669;1693,32027;0,02549
135,90001;4,53000;1693,30761;0,02552
136,00001;4,53330;1694,98399;0,02554
136,10001;4,53666;1695,76425;0,02557
136,20001;4,54002;1696,23736;0,02559
136,30001;4,54333;1697,08654;0,02562
136,40001;4,54669;1698,02979;0,02564
136,50001;4,55002;1698,72530;0,02566
136,60001;4,55330;1699,88479;0,02569
136,70001;4,55666;1699,94105;0,02571
136,80001;4,55999;1700,82171;0,02574
136,90001;4,56336;1702,15648;0,02576
137,00001;4,56669;1702,41650;0,02579
137,10001;4,57002;1703,79840;0,02582
137,20001;4,57330;1704,29666;0,02584
137,30001;4,57660;1704,96088;0,02586
137,40001;4,57997;1705,46845;0,02589
137,50001;4,58336;1707,10105;0,02592
137,60001;4,58672;1707,27968;0,02594
137,70001;4,59005;1708,33245;0,02597
137,80001;4,59336;1708,57068;0,02599
137,90001;4,59663;1709,82387;0,02602
138,00001;4,59997;1710,38173;0,02604
138,10001;4,60336;1711,19329;0,02607
138,20001;4,60669;1711,69769;0,02610
138,30001;4,61002;1712,24289;0,02612
138,40001;4,61336;1713,63726;0,02615
138,50001;4,61666;1714,80607;0,02617
138,60001;4,61991;1715,17897;0,02620
138,70001;4,62327;1715,43583;0,02622
138,80001;4,62663;1716,99002;0,02625
138,90001;4,62999;1717,13736;0,02627
139,00001;4,63336;1718,17131;0,02630
139,10001;4,63666;1718,55055;0,02632
139,20001;4,63997;1719,16783;0,02635
139,30001;4,64324;1720,13920;0,02637
139,40001;4,64666;1720,61548;0,02640
139,50001;4,65005;1722,05679;0,02642
139,60001;4,65341;1722,70238;0,02645
139,70001;4,65675;1723,01251;0,02647
139,80001;4,66008;1723,79278;0,02650
139,90001;4,66333;1724,86752;0,02652
140,00001;4,66663;1725,43153;0,02655
140,10001;4,66999;1726,39657;0,02658
140,20001;4,67336;1726,84472;0,02660
140,30001;4,67669;1727,68142;0,02663
140,40001;4,68005;1728,91598;0,02665
140,50001;4,68336;1729,19165;0,02668
140,60001;4,68660;1729,92498;0,02671
140,70001;4,68997;1730,63930;0,02673
140,80001;4,69333;1732,09943;0,02676
140,90001;4,69669;1732,66977;0,02679
141,00001;4,70002;1732,75433;0,02681
141,10001;4,70336;1733,63164;0,02684
141,20001;4,70666;1734,60934;0,02686
141,30001;4,70994;1735,16702;0,02689
141,40001;4,71330;1735,43971;0,02691
141,50001;4,71666;1737,31353;0,02694
141,60001;4,72002;1738,17519;0,02696
141,70001;4,72336;1738,16886;0,02699
141,80001;4,72669;1739,05566;0,02702
141,90001;4,72997;1739,38461;0,02704
142,00001;4,73327;1740,45954;0,02707
142,10001;4,73663;1741,15822;0,02709
142,20001;4,73999;1741,77550;0,02712
142,30001;4,74333;1742,54626;0,02714
142,40001;4,74666;1743,04768;0,02717
142,50001;4,75002;1743,93132;0,02720
142,60001;4,75327;1744,94646;0,02722
142,70001;4,75666;1745,06567;0,02725
142,80001;4,76002;1746,02754;0,02727
142,90001;4,76336;1747,17121;0,02730
143,00001;4,76669;1747,63501;0,02733
143,10001;4,77002;1748,26160;0,02735
143,20001;4,77330;1748,98244;0,02738
143,30001;4,77660;1749,46804;0,02740
143,40001;4,77997;1750,04769;0,02743
143,50001;4,78333;1751,62703;0,02746
143,60001;4,78669;1751,70526;0,02748
143,70001;4,79005;1752,79267;0,02751
143,80001;4,79338;1753,55412;0,02754
143,90001;4,79666;1754,19319;0,02756
144,00001;4,79997;1755,20536;0,02759
144,10001;4,80336;1755,44657;0,02762
144,20001;4,80675;1756,95382;0,02764
144,30001;4,81008;1756,88174;0,02767
144,40001;4,81341;1756,97580;0,02770
144,50001;4,81672;1758,15392;0,02772
144,60001;4,81997;1759,71743;0,02775
144,70001;4,82330;1760,26262;0,02777
144,80001;4,82663;1760,51334;0,02780
144,90001;4,82997;1761,75106;0,02783
145,00001;4,83330;1762,04871;0,02785
145,10001;4,83663;1762,68797;0,02788
145,20001;4,83994;1763,46190;0,02790
145,30001;4,84321;1763,97581;0,02793
145,40001;4,84663;1764,21702;0,02796
145,50001;4,85002;1765,83398;0,02798
145,60001;4,85338;1766,27897;0,02801
145,70001;4,85672;1766,72377;0,02804
145,80001;4,86005;1767,20321;0,02806
145,90001;4,86330;1767,98031;0,02809
146,00001;4,86663;1768,46907;0,02811
146,10001;4,86997;1769,68500;0,02814
146,20001;4,87333;1770,87244;0,02817
146,30001;4,87666;1770,53716;0,02819
146,40001;4,88002;1771,94420;0,02822
146,50001;4,88336;1772,11966;0,02825
146,60001;4,88660;1772,58328;0,02827
146,70001;4,88997;1773,64871;0,02830
146,80001;4,89336;1774,44778;0,02833
146,90001;4,89672;1774,73594;0,02836
147,00001;4,90005;1776,24319;0,02838
147,10001;4,90338;1777,17377;0,02841
147,20001;4,90669;1777,59361;0,02843
147,30001;4,90994;1778,32060;0,02846
147,40001;4,91330;1779,19492;0,02849
147,50001;4,91666;1779,52070;0,02852
147,60001;4,92002;1780,49840;0,02854
147,70001;4,92336;1780,93705;0,02857
147,80001;4,92666;1781,22222;0,02860
147,90001;4,92994;1782,08072;0,02862
148,00001;4,93327;1782,84850;0,02865
148,10001;4,93663;1784,04227;0,02868
148,20001;4,93999;1784,25852;0,02870
148,30001;4,94333;1785,21108;0,02873
148,40001;4,94669;1785,59013;0,02876
148,50001;4,95005;1786,36108;0,02879
148,60001;4,95336;1787,34176;0,02881
148,70001;4,95672;1787,72714;0,02884
148,80001;4,96008;1788,34442;0,02887
148,90001;4,96341;1788,48859;0,02890
149,00001;4,96672;1789,45065;0,02892
149,10001;4,97002;1790,11170;0,02895
149,20001;4,97330;1791,30863;0,02897
149,30001;4,97655;1791,22090;0,02900
149,40001;4,97994;1792,05760;0,02903
149,50001;4,98333;1792,37407;0,02906
149,60001;4,98666;1793,80924;0,02909
149,70001;4,99002;1793,72765;0,02911
149,80001;4,99336;1794,53306;0,02914
149,90001;4,99666;1796,07775;0,02917
150,00001;5,00002;1796,82970;0,02920
150,10001;5,00338;1796,79524;0,02922
150,20001;5,00675;1798,47162;0,02925
150,30001;5,01008;1798,35893;0,02928
150,40001;5,01338;1798,35893;0,02930
150,50001;5,01666;1799,75946;0,02933
150,60001;5,01991;1799,52458;0,02936
150,70001;5,02324;1800,85618;0,02938
150,80001;5,02663;1801,65209;0,02941
150,90001;5,02999;1802,51375;0,02944
151,00001;5,03333;1803,07478;0,02947
151,10001;5,03666;1804,07744;0,02950
151,20001;5,03994;1805,01118;0,02952
151,30001;5,04324;1804,56936;0,02955
151,40001;5,04660;1805,43102;0,02958
151,50001;5,04997;1806,10474;0,02960
151,60001;5,05333;1806,53706;0,02963
151,70001;5,05672;1807,50843;0,02966
151,80001;5,06011;1807,60566;0,02969
151,90001;5,06336;1808,98756;0,02972
152,00001;5,06663;1808,89983;0,02974
152,10001;5,06999;1810,34748;0,02977
152,20001;5,07333;1810,75782;0,02980
152,30001;5,07666;1811,48481;0,02983
152,40001;5,07999;1811,76998;0,02985
152,50001;5,08336;1813,04216;0,02988
152,60001;5,08663;1813,65628;0,02991
152,70001;5,08999;1814,22979;0,02994
152,80001;5,09338;1814,50546;0,02996
152,90001;5,09677;1815,02551;0,03000
153,00001;5,10014;1815,96242;0,03002
153,10001;5,10344;1816,02836;0,03005
153,20001;5,10672;1817,04033;0,03008
153,30001;5,10997;1817,39125;0,03011
153,40001;5,11330;1818,09943;0,03013
153,50001;5,11666;1818,60402;0,03016
153,60001;5,11997;1819,34666;0,03019
153,70001;5,12330;1820,47784;0,03022
153,80001;5,12660;1821,02304;0,03024
153,90001;5,12988;1821,10127;0,03027
154,00001;5,13321;1821,67161;0,03030
154,10001;5,13660;1823,55791;0,03033
154,20001;5,13997;1823,39810;0,03035
154,30001;5,14333;1823,98092;0,03038
154,40001;5,14669;1825,09962;0,03041
154,50001;5,15002;1825,48184;0,03044
154,60001;5,15333;1825,80762;0,03047
154,70001;5,15669;1826,74769;0,03049
154,80001;5,16005;1826,87305;0,03052
154,90001;5,16338;1827,91650;0,03055
155,00001;5,16669;1828,07632;0,03058
155,10001;5,17002;1829,00373;0,03061
155,20001;5,17330;1830,09114;0,03064
155,30001;5,17658;1829,19800;0,03066
155,40001;5,17997;1830,35750;0,03069
155,50001;5,18333;1831,80813;0,03072
155,60001;5,18666;1832,74206;0,03075
155,70001;5,18999;1832,42243;0,03078
155,80001;5,19336;1833,30905;0,03080
155,90001;5,19666;1834,13941;0,03083
156,00001;5,19999;1834,44656;0,03086
156,10001;5,20338;1835,60271;0,03089
156,20001;5,20675;1835,75954;0,03092
156,30001;5,21005;1836,22949;0,03095
156,40001;5,21333;1836,69012;0,03097
156,50001;5,21666;1837,28542;0,03100
156,60001;5,21994;1837,71793;0,03103
156,70001;5,22330;1839,31906;0,03106
156,80001;5,22666;1839,72642;0,03109
156,90001;5,23002;1840,19636;0,03112
157,00001;5,23336;1841,26794;0,03115
157,10001;5,23666;1841,23982;0,03118
157,20001;5,23997;1841,66282;0,03120
157,30001;5,24327;1842,45873;0,03123
157,40001;5,24672;1842,82213;0,03126
157,50001;5,25011;1843,77171;0,03129
157,60001;5,25341;1844,08501;0,03132
157,70001;5,25675;1844,84646;0,03135
157,80001;5,26002;1845,40413;0,03137
157,90001;5,26327;1845,52018;0,03140
158,00001;5,26658;1846,69830;0,03143
158,10001;5,26994;1847,67898;0,03146
158,20001;5,27330;1847,75740;0,03149
158,30001;5,27666;1848,26814;0,03152
158,40001;5,27999;1849,37418;0,03155
158,50001;5,28333;1849,30526;0,03158
158,60001;5,28663;1850,52417;0,03161
158,70001;5,28999;1850,67449;0,03164
158,80001;5,29338;1851,44227;0,03167
158,90001;5,29675;1851,70546;0,03169
159,00001;5,30011;1852,65802;0,03172
159,10001;5,30341;1853,47591;0,03175
159,20001;5,30666;1853,86129;0,03178
159,30001;5,30994;1854,71047;0,03181
159,40001;5,31330;1854,92039;0,03184
159,50001;5,31666;1856,09218;0,03187
159,60001;5,31999;1856,16743;0,03190
159,70001;5,32333;1856,54350;0,03193
159,80001;5,32663;1857,29545;0,03195
159,90001;5,32991;1857,97550;0,03198
160,00001;5,33321;1858,27632;0,03201
160,10001;5,33658;1859,15045;0,03204
160,20001;5,33994;1860,04043;0,03207
160,30001;5,34327;1860,24085;0,03210
160,40001;5,34663;1860,25351;0,03213
160,50001;5,35005;1861,16844;0,03216
160,60001;5,35333;1861,97367;0,03219
160,70001;5,35669;1861,76375;0,03222
160,80001;5,36005;1862,38103;0,03225
160,90001;5,36338;1864,23920;0,03228
161,00001;5,36672;1864,10751;0,03231
161,10001;5,37002;1864,82817;0,03233
161,20001;5,37333;1865,02878;0,03236
161,30001;5,37660;1865,60843;0,03239
161,40001;5,37999;1866,40751;0,03242
161,50001;5,38341;1866,44513;0,03245
161,60001;5,38675;1867,30996;0,03248
161,70001;5,39011;1867,71099;0,03251
161,80001;5,39341;1868,67919;0,03254
161,90001;5,39666;1869,23388;0,03257
162,00001;5,39997;1870,00465;0,03260
162,10001;5,40333;1870,85066;0,03263
162,20001;5,40669;1871,11702;0,03265
162,30001;5,40999;1871,36456;0,03268
162,40001;5,41333;1871,44596;0,03271
162,50001;5,41663;1872,10720;0,03274
162,60001;5,41991;1873,35741;0,03277
162,70001;5,42327;1872,96886;0,03280
162,80001;5,42663;1874,33194;0,03283
162,90001;5,42999;1874,19727;0,03286
163,00001;5,43333;1875,06508;0,03289
163,10001;5,43663;1875,60730;0,03292
163,20001;5,43994;1876,56600;0,03295
163,30001;5,44327;1876,48777;0,03298
163,40001;5,44666;1876,52223;0,03301
163,50001;5,45002;1877,95106;0,03304
163,60001;5,45338;1878,45547;0,03307
163,70001;5,45672;1878,82520;0,03310
163,80001;5,46005;1879,47080;0,03313
163,85401;5,46182;1617,64491;0,03545
163,86001;5,46202;1296,08335;0,03632
163,86401;5,46216;1068,53396;0,03622
