Text Inputs : Specimen label;"1"
Dimension : Length;50,00000;mm
Dimension : Final length;100,00000;mm
Test : Rate 1;4,00000;mm/min
General : Unique Identifier;"{A4C1F8A2-6B9B-46CF-A2C3-BD7D4DA16BA8}"

Time;Extension;Load;Strain 1
(sec);(mm);(N);(mm/mm)
0,00000;0,00000;-0,16980;0,00000
0,10000;0,00405;-0,42361;0,00000
0,20000;0,01023;-0,13220;0,00000
0,30000;0,01718;5,37949;0,00001
0,40000;0,02442;14,40690;0,00004
0,50000;0,03179;22,14019;0,00009
0,60000;0,03900;29,67608;0,00014
0,70000;0,04601;36,61661;0,00019
0,80000;0,05293;42,93047;0,00023
0,90000;0,05977;49,67360;0,00028
1,00000;0,06650;55,75558;0,00032
1,10000;0,07328;61,27981;0,00036
1,20000;0,07997;67,69394;0,00041
1,30000;0,08664;71,91466;0,00044
1,40000;0,09336;73,20563;0,00046
1,50000;0,10003;73,81978;0,00048
1,60000;0,10670;75,11075;0,00049
1,70000;0,11330;76,11344;0,00050
1,80000;0,11997;76,59913;0,00051
1,90000;0,12667;76,59600;0,00052
2,00000;0,13330;77,23834;0,00053
2,10000;0,14003;78,07184;0,00054
2,20000;0,14669;78,28492;0,00055
2,30000;0,15328;78,88339;0,00056
2,40000;0,15997;79,62289;0,00056
2,50000;0,16667;79,56962;0,00057
2,60000;0,17333;81,22720;0,00058
2,70000;0,18000;80,95145;0,00059
2,80000;0,18672;81,89462;0,00059
2,90000;0,19339;81,48100;0,00060
3,00000;0,19997;82,92551;0,00061
3,10000;0,20667;84,37316;0,00061
3,20000;0,21333;84,84630;0,00062
3,30000;0,21991;87,03343;0,00064
3,40000;0,22664;87,03970;0,00065
3,50000;0,23336;86,96764;0,00065
3,60000;0,24003;86,92377;0,00065
3,70000;0,24664;86,67622;0,00065
3,80000;0,25333;87,50971;0,00066
3,90000;0,26000;87,58178;0,00066
4,00000;0,26661;88,54688;0,00066
4,10000;0,27333;87,78860;0,00067
4,20000;0,28003;88,21160;0,00067
4,30000;0,28669;88,65969;0,00067
4,40000;0,29333;88,61582;0,00068
4,50000;0,30000;89,06076;0,00068
4,60000;0,30667;89,52138;0,00068
4,70000;0,31330;89,32083;0,00068
4,80000;0,32000;90,11986;0,00068
4,90000;0,32672;90,45827;0,00069
5,00000;0,33333;90,90948;0,00069
5,10000;0,34003;91,99678;0,00069
5,20000;0,34669;91,42964;0,00070
5,30000;0,35330;91,60510;0,00070
5,40000;0,35994;92,70180;0,00070
5,50000;0,36667;92,53887;0,00070
5,60000;0,37336;92,99947;0,00071
5,70000;0,38003;93,18748;0,00071
5,80000;0,38669;93,46636;0,00071
5,90000;0,39339;93,90190;0,00071
6,00000;0,40000;94,13378;0,00071
6,10000;0,40667;95,46862;0,00072
6,20000;0,41333;95,73495;0,00072
6,30000;0,41994;96,23318;0,00073
6,40000;0,42664;96,15797;0,00073
6,50000;0,43333;97,91269;0,00073
6,60000;0,44003;99,61100;0,00074
6,70000;0,44664;100,84558;0,00075
6,80000;0,45333;104,82816;0,00078
6,90000;0,46000;107,44770;0,00079
7,00000;0,46667;111,11381;0,00082
7,10000;0,47339;115,91422;0,00085
7,20000;0,48003;118,30815;0,00087
7,30000;0,48664;122,11214;0,00090
7,40000;0,49330;126,42686;0,00092
7,50000;0,50000;129,13727;0,00095
7,60000;0,50667;134,11315;0,00098
7,70000;0,51330;137,74480;0,00100
7,80000;0,51997;140,92836;0,00103
7,90000;0,52667;144,87021;0,00106
8,00000;0,53328;148,37651;0,00108
8,10000;0,54003;153,42132;0,00111
8,20000;0,54669;156,28841;0,00114
8,30000;0,55328;162,26071;0,00118
8,40000;0,56000;167,04232;0,00121
8,50000;0,56672;170,83690;0,00124
8,60000;0,57339;176,53661;0,00128
8,70000;0,58000;181,32448;0,00131
8,80000;0,58667;186,01521;0,00135
8,90000;0,59336;191,62404;0,00138
9,00000;0,59997;195,93250;0,00142
9,10000;0,60667;201,76382;0,00145
9,20000;0,61336;205,95007;0,00149
9,30000;0,61997;209,76658;0,00152
9,40000;0,62667;213,95909;0,00155
9,50000;0,63333;219,18565;0,00159
9,60000;0,64000;223,77612;0,00163
9,70000;0,64664;229,40063;0,00166
9,80000;0,65333;234,00676;0,00170
9,90000;0,66003;238,30268;0,00173
10,00000;0,66667;242,33854;0,00177
10,10000;0,67336;248,37351;0,00180
10,20000;0,68003;251,88294;0,00184
10,30000;0,68664;256,66768;0,00187
10,40000;0,69333;261,04508;0,00191
10,50000;0,70000;265,97083;0,00195
10,60000;0,70667;270,85270;0,00198
10,70000;0,71330;276,37067;0,00202
10,80000;0,71994;279,17195;0,00205
10,90000;0,72664;284,21676;0,00209
11,00000;0,73328;289,48092;0,00212
11,10000;0,74000;294,93936;0,00216
11,20000;0,74669;298,10099;0,00220
11,30000;0,75333;302,99225;0,00223
11,40000;0,76003;307,31952;0,00227
11,50000;0,76672;312,12305;0,00230
11,60000;0,77336;316,61638;0,00234
11,70000;0,77997;321,54215;0,00238
11,80000;0,78667;325,26152;0,00241
11,90000;0,79333;330,52880;0,00245
12,00000;0,79997;334,84038;0,00249
12,10000;0,80667;339,65961;0,00252
12,20000;0,81333;343,49179;0,00256
12,30000;0,81994;347,07328;0,00259
12,40000;0,82664;351,89877;0,00263
12,50000;0,83333;355,27661;0,00266
12,60000;0,84000;359,30618;0,00269
12,70000;0,84667;362,92216;0,00273
12,80000;0,85336;367,08021;0,00276
12,90000;0,86003;371,00953;0,00279
13,00000;0,86664;373,83274;0,00282
13,10000;0,87333;378,59555;0,00285
13,20000;0,88003;381,65064;0,00288
13,30000;0,88664;385,23527;0,00291
13,40000;0,89336;388,76978;0,00294
13,50000;0,90006;391,99092;0,00297
13,60000;0,90669;395,62257;0,00300
13,70000;0,91330;398,85626;0,00303
13,80000;0,91997;402,83883;0,00306
13,90000;0,92664;404,98837;0,00309
14,00000;0,93328;409,25923;0,00312
14,10000;0,94000;412,90028;0,00315
14,20000;0,94669;416,26873;0,00318
14,30000;0,95330;419,51807;0,00321
14,40000;0,96000;422,15330;0,00324
14,50000;0,96669;425,31802;0,00327
14,60000;0,97336;429,24737;0,00330
14,70000;0,97997;432,27738;0,00333
14,80000;0,98669;436,14088;0,00336
14,90000;0,99336;439,70672;0,00339
15,00000;0,99997;442,00355;0,00341
15,10000;1,00664;446,16475;0,00344
15,20000;1,01333;448,81874;0,00347
15,30000;1,01994;451,87697;0,00350
15,40000;1,02661;455,20151;0,00353
15,50000;1,03333;457,88689;0,00356
15,60000;1,04006;462,00105;0,00358
15,70000;1,04669;464,62687;0,00361
15,80000;1,05336;467,65688;0,00364
15,90000;1,06003;471,44522;0,00367
16,00000;1,06664;474,64757;0,00370
16,10000;1,07333;477,34859;0,00373
16,20000;1,08003;481,69466;0,00376
16,30000;1,08667;484,25151;0,00379
16,40000;1,09333;487,08725;0,00382
16,50000;1,10000;490,11102;0,00384
16,60000;1,10667;494,21266;0,00387
16,70000;1,11330;496,09272;0,00390
16,80000;1,11997;499,47682;0,00393
16,90000;1,12664;502,79200;0,00396
17,00000;1,13330;505,81577;0,00399
17,10000;1,14003;510,17748;0,00401
17,20000;1,14669;511,99174;0,00404
17,30000;1,15330;514,73663;0,00407
17,40000;1,15997;518,28367;0,00410
17,50000;1,16669;521,82130;0,00413
17,60000;1,17336;523,96767;0,00416
17,70000;1,18000;527,49594;0,00419
17,80000;1,18669;531,14952;0,00421
17,90000;1,19336;533,29277;0,00424
18,00000;1,19997;536,30713;0,00427
18,10000;1,20667;540,45892;0,00429
18,20000;1,21333;541,90652;0,00432
18,30000;1,21991;545,99880;0,00435
18,40000;1,22664;548,80008;0,00438
18,50000;1,23336;550,83679;0,00441
18,60000;1,24003;555,11394;0,00443
18,70000;1,24667;557,27600;0,00446
18,80000;1,25333;560,47835;0,00449
18,90000;1,26003;563,16685;0,00452
19,00000;1,26664;566,40678;0,00455
19,10000;1,27336;568,50305;0,00457
19,20000;1,28003;572,06890;0,00460
19,30000;1,28664;575,02370;0,00463
19,40000;1,29330;578,18536;0,00466
19,50000;1,30000;581,63214;0,00469
19,60000;1,30667;584,76240;0,00472
19,70000;1,31327;587,23153;0,00474
19,80000;1,32000;590,47150;0,00477
19,90000;1,32672;593,57672;0,00480
20,00000;1,33336;596,14927;0,00482
20,10000;1,34006;598,97564;0,00485
20,20000;1,34669;601,91476;0,00488
20,30000;1,35330;604,52493;0,00491
20,40000;1,35997;608,10954;0,00493
20,50000;1,36667;610,92339;0,00496
20,60000;1,37336;613,42698;0,00499
20,70000;1,38000;616,41312;0,00502
20,80000;1,38669;619,67815;0,00504
20,90000;1,39339;622,14104;0,00507
21,00000;1,39997;625,90116;0,00510
21,10000;1,40667;628,58025;0,00512
21,20000;1,41333;630,90837;0,00515
21,30000;1,41994;634,71547;0,00518
21,40000;1,42666;637,45407;0,00521
21,50000;1,43336;640,48097;0,00523
21,60000;1,44003;643,34492;0,00526
21,70000;1,44664;645,99896;0,00529
21,80000;1,45333;649,70581;0,00532
21,90000;1,46003;652,08091;0,00534
22,00000;1,46667;654,16466;0,00537
22,10000;1,47336;658,22243;0,00540
22,20000;1,48003;661,36839;0,00542
22,30000;1,48664;663,89078;0,00545
22,40000;1,49333;666,74533;0,00548
22,50000;1,50000;669,48710;0,00551
22,60000;1,50666;672,66128;0,00553
22,70000;1,51330;675,64114;0,00557
22,80000;1,52000;678,67744;0,00559
22,90000;1,52669;681,04318;0,00562
23,00000;1,53330;683,92907;0,00565
23,10000;1,54003;687,47923;0,00567
23,20000;1,54669;689,47836;0,00570
23,30000;1,55330;693,01599;0,00573
23,40000;1,55997;695,53526;0,00576
23,50000;1,56669;698,82851;0,00579
23,60000;1,57336;701,10965;0,00581
23,70000;1,57997;704,87289;0,00584
23,80000;1,58669;707,66164;0,00587
23,90000;1,59336;709,72028;0,00590
24,00000;1,59994;713,05740;0,00592
24,10000;1,60669;715,74585;0,00595
24,20000;1,61336;718,44687;0,00598
24,30000;1,61997;721,86859;0,00601
24,40000;1,62666;724,83905;0,00604
24,50000;1,63336;727,48368;0,00606
24,60000;1,64003;730,47923;0,00609
24,70000;1,64664;732,98286;0,00612
24,80000;1,65333;736,28859;0,00615
24,90000;1,66003;738,85801;0,00617
25,00000;1,66664;741,24881;0,00620
25,10000;1,67333;744,92744;0,00623
25,20000;1,68003;747,12713;0,00626
25,30000;1,68664;750,18536;0,00629
25,40000;1,69330;752,75474;0,00631
25,50000;1,70000;756,15454;0,00634
25,60000;1,70669;758,68005;0,00637
25,70000;1,71333;761,63490;0,00639
25,80000;1,72000;764,82785;0,00642
25,90000;1,72666;767,20924;0,00645
26,00000;1,73330;769,90714;0,00648
26,10000;1,74000;773,20975;0,00650
26,20000;1,74669;775,36553;0,00653
26,30000;1,75330;778,94079;0,00656
26,40000;1,76000;781,66062;0,00659
26,50000;1,76669;784,52453;0,00662
26,60000;1,77336;787,82402;0,00665
26,70000;1,77997;789,96727;0,00668
26,80000;1,78666;792,90336;0,00670
26,90000;1,79333;795,20009;0,00673
27,00000;1,79997;798,46513;0,00676
27,10000;1,80669;802,57934;0,00679
27,20000;1,81336;805,74099;0,00681
27,30000;1,81997;806,68097;0,00684
27,40000;1,82664;809,63895;0,00687
27,50000;1,83333;813,59018;0,00690
27,60000;1,84003;815,92146;0,00693
27,70000;1,84664;819,57188;0,00695
27,80000;1,85333;822,04416;0,00698
27,90000;1,86000;824,56972;0,00701
28,00000;1,86664;828,11993;0,00704
28,10000;1,87333;831,42249;0,00707
28,20000;1,88003;833,65040;0,00709
28,30000;1,88664;836,79631;0,00712
28,40000;1,89336;839,15899;0,00715
28,50000;1,90005;841,59048;0,00718
28,60000;1,90669;845,19703;0,00721
28,70000;1,91330;848,25838;0,00723
28,80000;1,91997;851,33854;0,00726
28,90000;1,92666;853,56021;0,00729
29,00000;1,93330;856,05746;0,00732
29,10000;1,94003;859,52934;0,00735
29,20000;1,94669;862,52494;0,00738
29,30000;1,95327;864,55531;0,00740
29,40000;1,95997;868,41891;0,00743
29,50000;1,96669;870,65930;0,00746
29,60000;1,97336;873,88353;0,00749
29,70000;1,97997;876,77259;0,00752
29,80000;1,98669;880,08773;0,00755
29,90000;1,99336;881,67014;0,00757
30,00000;2,00000;884,69386;0,00760
30,10000;2,00669;887,80224;0,00763
30,20000;2,01333;889,96114;0,00766
30,30000;2,01994;893,69621;0,00769
30,40000;2,02664;895,95225;0,00772
30,50000;2,03336;899,56829;0,00774
30,60000;2,04005;902,00920;0,00777
30,70000;2,04666;904,54724;0,00780
30,80000;2,05333;907,92198;0,00783
30,90000;2,06003;911,31544;0,00786
31,00000;2,06664;913,85357;0,00789
31,10000;2,07333;916,53885;0,00791
31,20000;2,08003;919,25561;0,00794
31,30000;2,08666;923,39795;0,00797
31,40000;2,09336;925,14958;0,00800
31,50000;2,10003;928,22034;0,00803
31,60000;2,10669;931,24090;0,00806
31,70000;2,11330;933,43742;0,00809
31,80000;2,11997;936,90306;0,00812
31,90000;2,12666;939,57270;0,00815
32,00000;2,13330;943,06329;0,00818
32,10000;2,14003;945,17525;0,00820
32,20000;2,14669;948,56881;0,00823
32,30000;2,15330;951,22280;0,00826
32,40000;2,15997;954,10235;0,00829
32,50000;2,16669;957,74345;0,00832
32,60000;2,17336;960,32536;0,00835
32,70000;2,18003;962,76635;0,00838
32,80000;2,18672;965,69918;0,00841
32,90000;2,19339;968,54437;0,00844
33,00000;2,19997;970,83803;0,00846
33,10000;2,20664;975,01492;0,00850
33,20000;2,21333;976,37791;0,00852
33,30000;2,21994;980,82423;0,00855
33,40000;2,22664;982,95808;0,00858
33,50000;2,23336;985,37086;0,00861
33,60000;2,24003;988,84897;0,00864
33,70000;2,24664;991,46534;0,00867
33,80000;2,25333;995,22546;0,00870
33,90000;2,26000;998,16462;0,00873
34,00000;2,26664;999,88803;0,00876
34,10000;2,27336;1002,81779;0,00879
34,20000;2,28003;1007,15756;0,00882
34,30000;2,28669;1008,97495;0,00885
34,40000;2,29333;1012,56268;0,00888
34,50000;2,30003;1015,79325;0,00891
34,60000;2,30669;1018,73558;0,00894
34,70000;2,31330;1021,35194;0,00897
34,80000;2,32000;1024,67341;0,00900
34,90000;2,32669;1026,29969;0,00903
35,00000;2,33330;1029,73385;0,00906
35,10000;2,34003;1033,66636;0,00909
35,20000;2,34669;1034,95419;0,00912
35,30000;2,35327;1038,08129;0,00914
35,40000;2,35994;1041,44039;0,00918
35,50000;2,36666;1044,32935;0,00921
35,60000;2,37336;1048,10204;0,00924
35,70000;2,38003;1050,55552;0,00927
35,80000;2,38669;1052,07209;0,00930
35,90000;2,39339;1056,16748;0,00933
36,00000;2,39997;1058,51442;0,00936
36,10000;2,40666;1061,65092;0,00939
36,20000;2,41333;1065,37351;0,00942
36,30000;2,41994;1066,90889;0,00944
36,40000;2,42664;1069,98272;0,00948
36,50000;2,43333;1074,05931;0,00951
36,60000;2,44000;1077,03293;0,00954
36,70000;2,44664;1078,55266;0,00957
36,80000;2,45330;1082,34724;0,00960
36,90000;2,46000;1084,92915;0,00963
37,00000;2,46666;1087,76810;0,00966
37,10000;2,47339;1091,00798;0,00969
37,20000;2,48005;1093,32362;0,00972
37,30000;2,48666;1096,90204;0,00975
37,40000;2,49333;1099,63752;0,00978
37,50000;2,50003;1102,11913;0,00981
37,60000;2,50666;1105,11156;0,00984
37,70000;2,51330;1107,82823;0,00987
37,80000;2,52000;1109,93395;0,00990
37,90000;2,52666;1113,08303;0,00993
38,00000;2,53327;1116,18508;0,00996
38,10000;2,54000;1119,47833;0,00999
38,20000;2,54669;1121,66237;0,01002
38,30000;2,55327;1125,24070;0,01005
38,40000;2,56000;1127,80388;0,01008
38,50000;2,56669;1130,84950;0,01012
38,60000;2,57336;1133,51922;0,01015
38,70000;2,57997;1136,76544;0,01018
38,80000;2,58669;1139,81115;0,01021
38,90000;2,59336;1141,96381;0,01024
39,00000;2,59997;1145,00951;0,01027
39,10000;2,60669;1148,19622;0,01030
39,20000;2,61339;1150,17965;0,01033
39,30000;2,61997;1153,55123;0,01036
39,40000;2,62664;1155,79469;0,01039
39,50000;2,63336;1158,97832;0,01043
39,60000;2,64003;1162,96718;0,01046
39,70000;2,64663;1164,72188;0,01049
39,80000;2,65333;1167,96186;0,01052
39,90000;2,66003;1171,91309;0,01055
40,00000;2,66666;1173,47669;0,01058
40,10000;2,67336;1176,29049;0,01061
40,20000;2,68003;1179,95348;0,01064
40,30000;2,68664;1182,50409;0,01068
40,40000;2,69333;1184,95757;0,01071
40,50000;2,70003;1188,77087;0,01074
40,60000;2,70669;1191,55338;0,01077
40,70000;2,71330;1193,88150;0,01080
40,80000;2,71994;1196,22536;0,01083
40,90000;2,72664;1199,05164;0,01086
41,00000;2,73327;1201,71197;0,01090
41,10000;2,74000;1205,80420;0,01093
41,20000;2,74669;1207,69050;0,01096
41,30000;2,75333;1210,92107;0,01099
41,40000;2,76003;1213,89469;0,01102
41,50000;2,76669;1216,80256;0,01105
41,60000;2,77336;1219,71974;0,01108
41,70000;2,77997;1222,78733;0,01111
41,80000;2,78669;1225,26595;0,01115
41,90000;2,79336;1228,73457;0,01117
42,00000;2,79997;1230,88732;0,01121
42,10000;2,80669;1233,79827;0,01124
42,20000;2,81333;1237,26064;0,01127
42,30000;2,81994;1239,24101;0,01130
42,40000;2,82663;1242,05165;0,01133
42,50000;2,83333;1245,78672;0,01136
42,60000;2,84000;1248,61933;0,01139
42,70000;2,84663;1251,58038;0,01142
42,80000;2,85336;1253,52312;0,01146
42,90000;2,86003;1255,92966;0,01149
43,00000;2,86666;1260,20992;0,01152
43,10000;2,87336;1263,23989;0,01155
43,20000;2,88003;1265,15441;0,01158
43,30000;2,88666;1268,79234;0,01162
43,40000;2,89336;1270,94500;0,01165
43,50000;2,90008;1274,94633;0,01168
43,60000;2,90669;1277,63487;0,01171
43,70000;2,91330;1279,78753;0,01174
43,80000;2,91997;1282,78937;0,01177
43,90000;2,92663;1286,36453;0,01181
44,00000;2,93327;1287,84981;0,01183
44,10000;2,94000;1291,34050;0,01187
44,20000;2,94669;1294,50206;0,01190
44,30000;2,95330;1296,78324;0,01193
44,40000;2,96000;1300,42424;0,01196
44,50000;2,96669;1302,38896;0,01199
44,60000;2,97336;1305,45339;0,01202
44,70000;2,97997;1308,31422;0,01206
44,80000;2,98666;1311,59183;0,01209
44,90000;2,99339;1314,43692;0,01212
45,00000;2,99997;1316,67424;0,01215
45,10000;3,00663;1319,91729;0,01218
45,20000;3,01333;1322,42404;0,01222
45,30000;3,01994;1325,24408;0,01225
45,40000;3,02663;1328,27414;0,01228
45,50000;3,03336;1331,19132;0,01231
45,60000;3,04005;1333,67619;0,01235
45,70000;3,04669;1336,47742;0,01238
45,80000;3,05336;1338,62700;0,01241
45,90000;3,06003;1342,09255;0,01244
46,00000;3,06663;1344,96903;0,01248
46,10000;3,07333;1347,00267;0,01251
46,20000;3,08002;1350,77210;0,01254
46,30000;3,08663;1353,88672;0,01257
46,40000;3,09333;1356,12087;0,01260
46,50000;3,10002;1359,33897;0,01264
46,60000;3,10669;1362,85154;0,01267
46,70000;3,11330;1364,31484;0,01270
46,80000;3,11997;1366,52384;0,01274
46,90000;3,12663;1370,46883;0,01277
47,00000;3,13330;1372,57455;0,01280
47,10000;3,14005;1375,79879;0,01284
47,20000;3,14672;1378,50605;0,01287
47,30000;3,15330;1381,31054;0,01290
47,40000;3,15997;1383,82977;0,01294
47,50000;3,16669;1387,85932;0,01297
47,60000;3,17336;1389,78017;0,01300
47,70000;3,18000;1392,16781;0,01304
47,80000;3,18669;1395,33570;0,01307
47,90000;3,19339;1398,04613;0,01310
48,00000;3,19997;1400,87875;0,01313
48,10000;3,20666;1403,95891;0,01317
48,20000;3,21333;1406,72568;0,01320
48,30000;3,21991;1409,07895;0,01323
48,40000;3,22663;1412,12773;0,01327
48,50000;3,23336;1415,50871;0,01330
48,60000;3,24005;1418,19715;0,01333
48,70000;3,24666;1420,90134;0,01337
48,80000;3,25333;1422,90043;0,01340
48,90000;3,26002;1426,27200;0,01343
49,00000;3,26663;1429,62476;0,01347
49,10000;3,27333;1432,53263;0,01350
49,20000;3,28002;1434,97353;0,01353
49,30000;3,28663;1437,51791;0,01357
49,40000;3,29333;1440,53856;0,01360
49,50000;3,30002;1443,56545;0,01363
49,60000;3,30666;1445,48304;0,01367
49,70000;3,31330;1448,11831;0,01370
49,80000;3,32000;1451,59010;0,01373
49,90000;3,32672;1454,32241;0,01377
50,00000;3,33336;1457,76607;0,01380
50,10000;3,34005;1460,84623;0,01384
50,20000;3,34669;1462,59470;0,01387
50,30000;3,35330;1465,54643;0,01390
50,40000;3,35997;1468,70492;0,01394
50,50000;3,36666;1471,48427;0,01397
50,60000;3,37336;1474,05993;0,01400
50,70000;3,37997;1477,07425;0,01404
50,80000;3,38666;1479,52456;0,01407
50,90000;3,39336;1482,06893;0,01410
51,00000;3,39997;1486,33355;0,01414
51,10000;3,40663;1488,40472;0,01417
51,20000;3,41333;1490,44143;0,01420
51,30000;3,41994;1493,47149;0,01424
51,40000;3,42666;1495,82783;0,01427
51,50000;3,43336;1498,90175;0,01431
51,60000;3,44002;1501,24235;0,01434
51,70000;3,44663;1504,28182;0,01438
51,80000;3,45333;1506,93581;0,01441
51,90000;3,46002;1509,72772;0,01445
52,00000;3,46666;1512,48202;0,01448
52,10000;3,47339;1515,62169;0,01451
52,20000;3,48002;1518,72374;0,01455
52,30000;3,48663;1520,27477;0,01458
52,40000;3,49330;1523,65891;0,01462
52,50000;3,49997;1526,30974;0,01465
52,60000;3,50666;1528,84787;0,01469
52,70000;3,51330;1531,74624;0,01472
52,80000;3,52000;1534,48489;0,01475
52,90000;3,52669;1536,78795;0,01479
53,00000;3,53333;1539,75217;0,01483
53,10000;3,54002;1543,24593;0,01486
53,20000;3,54669;1545,23253;0,01489
53,30000;3,55330;1547,66403;0,01493
53,40000;3,56000;1550,73171;0,01496
53,50000;3,56669;1552,50207;0,01500
53,60000;3,57336;1555,55094;0,01503
53,70000;3,57997;1558,18611;0,01507
53,80000;3,58669;1561,38847;0,01510
53,90000;3,59336;1563,95789;0,01513
54,00000;3,59994;1566,26087;0,01517
54,10000;3,60669;1569,34429;0,01520
54,20000;3,61339;1572,07977;0,01524
54,30000;3,62000;1574,99369;0,01527
54,40000;3,62666;1577,31883;0,01531
54,50000;3,63336;1580,01669;0,01534
54,60000;3,64002;1582,82742;0,01538
54,70000;3,64663;1585,70688;0,01541
54,80000;3,65333;1588,33899;0,01545
54,90000;3,66002;1591,32201;0,01548
55,00000;3,66663;1593,83826;0,01552
55,10000;3,67333;1596,43572;0,01555
55,20000;3,68002;1598,59154;0,01559
55,30000;3,68663;1601,91618;0,01562
55,40000;3,69330;1604,04369;0,01566
55,50000;3,70000;1606,84511;0,01569
55,60000;3,70669;1610,14460;0,01573
55,70000;3,71330;1612,41945;0,01576
55,80000;3,72000;1615,26762;0,01580
55,90000;3,72666;1618,21935;0,01583
56,00000;3,73330;1621,22119;0,01587
56,10000;3,74002;1623,45525;0,01590
56,20000;3,74669;1626,35054;0,01594
56,30000;3,75333;1628,92938;0,01597
56,40000;3,76000;1631,58961;0,01601
56,50000;3,76669;1633,72364;0,01605
56,60000;3,77336;1637,60595;0,01608
56,70000;3,77997;1639,48275;0,01611
56,80000;3,78666;1642,56915;0,01615
56,90000;3,79333;1645,02896;0,01618
57,00000;3,79997;1647,38223;0,01622
57,10000;3,80669;1650,65341;0,01626
57,20000;3,81336;1653,75248;0,01629
57,30000;3,81997;1654,13786;0,01633
57,40000;3,82666;1657,98254;0,01636
57,50000;3,83336;1661,10341;0,01640
57,60000;3,84002;1663,94226;0,01644
57,70000;3,84663;1666,22978;0,01647
57,80000;3,85336;1669,05914;0,01651
57,90000;3,86002;1672,15187;0,01655
58,00000;3,86663;1674,30136;0,01658
58,10000;3,87333;1677,37845;0,01662
58,20000;3,88002;1679,77866;0,01665
58,30000;3,88663;1681,61802;0,01669
58,40000;3,89336;1684,82028;0,01672
58,50000;3,90005;1686,55626;0,01676
58,60000;3,90669;1689,47354;0,01679
58,70000;3,91330;1692,56609;0,01683
58,80000;3,91997;1694,48387;0,01686
58,90000;3,92663;1696,95299;0,01690
59,00000;3,93330;1699,87325;0,01694
59,10000;3,94002;1702,84696;0,01697
59,20000;3,94669;1705,77038;0,01701
59,30000;3,95330;1707,76639;0,01705
59,40000;3,95997;1710,14462;0,01708
59,50000;3,96669;1713,35340;0,01712
59,60000;3,97336;1715,48408;0,01715
59,70000;3,97997;1718,05974;0,01719
59,80000;3,98669;1721,25269;0,01723
59,90000;3,99339;1723,09522;0,01726
60,00000;4,00002;1725,75545;0,01730
60,10000;4,00669;1728,58797;0,01733
60,20000;4,01336;1731,13234;0,01737
60,30000;4,01994;1732,95923;0,01741
60,40000;4,02663;1735,82938;0,01744
60,50000;4,03336;1738,09491;0,01748
60,60000;4,04005;1740,90546;0,01751
60,70000;4,04666;1743,94492;0,01755
60,80000;4,05333;1745,31732;0,01759
60,90000;4,06002;1748,52610;0,01762
61,00000;4,06663;1751,42121;0,01766
61,10000;4,07333;1753,60851;0,01769
61,20000;4,08002;1756,55391;0,01773
61,30000;4,08666;1758,16137;0,01777
61,40000;4,09336;1760,98458;0,01781
61,50000;4,10002;1763,32518;0,01784
61,60000;4,10669;1766,01056;0,01788
61,70000;4,11330;1768,47335;0,01791
61,80000;4,11997;1770,83593;0,01795
61,90000;4,12666;1774,06967;0,01799
62,00000;4,13330;1775,75555;0,01803
62,10000;4,14002;1779,04237;0,01807
62,20000;4,14669;1781,34870;0,01810
62,30000;4,15330;1783,20371;0,01814
62,40000;4,15997;1785,55679;0,01818
62,50000;4,16669;1788,74675;0,01821
62,60000;4,17336;1790,60474;0,01825
62,70000;4,18002;1793,18357;0,01829
62,80000;4,18672;1795,50555;0,01832
62,90000;4,19339;1797,47008;0,01836
63,00000;4,20000;1800,77590;0,01839
63,10000;4,20666;1803,43930;0,01843
63,20000;4,21333;1805,65156;0,01847
63,30000;4,21991;1808,37754;0,01851
63,40000;4,22663;1809,91609;0,01854
63,50000;4,23336;1812,63275;0,01858
63,60000;4,24002;1815,77560;0,01862
63,70000;4,24663;1817,53039;0,01866
63,80000;4,25333;1820,07775;0,01870
63,90000;4,26002;1823,06077;0,01873
64,00000;4,26660;1825,10074;0,01877
64,10000;4,27336;1828,19646;0,01881
64,20000;4,28005;1830,53724;0,01885
64,30000;4,28669;1832,13521;0,01889
64,40000;4,29333;1835,67591;0,01892
64,50000;4,29999;1837,75648;0,01896
64,60000;4,30669;1840,20065;0,01900
64,70000;4,31330;1842,87652;0,01903
64,80000;4,31999;1845,30821;0,01907
64,90000;4,32672;1847,31986;0,01911
65,00000;4,33333;1849,47252;0,01914
65,10000;4,34002;1852,95679;0,01918
65,20000;4,34669;1855,12826;0,01922
65,30000;4,35327;1856,94564;0,01926
65,40000;4,35994;1859,07949;0,01930
65,50000;4,36666;1861,80249;0,01934
65,60000;4,37336;1864,70095;0,01938
65,70000;4,38002;1866,02939;0,01941
65,80000;4,38669;1869,46690;0,01945
65,90000;4,39339;1871,13062;0,01949
66,00000;4,39999;1872,98879;0,01953
66,10000;4,40666;1877,24084;0,01957
66,20000;4,41336;1879,02376;0,01961
66,30000;4,41997;1880,77223;0,01964
66,40000;4,42663;1883,45127;0,01968
66,50000;4,43333;1886,44696;0,01972
66,60000;4,44002;1887,89442;0,01976
66,70000;4,44663;1890,53919;0,01979
66,80000;4,45333;1893,03327;0,01983
66,90000;4,45999;1895,22672;0,01987
67,00000;4,46666;1898,36957;0,01991
67,10000;4,47339;1899,99267;0,01995
67,20000;4,48005;1902,48992;0,01999
67,30000;4,48666;1904,70852;0,02003
67,40000;4,49333;1906,90812;0,02007
67,50000;4,49999;1909,56537;0,02010
67,60000;4,50666;1912,96190;0,02014
67,70000;4,51327;1913,93327;0,02018
67,80000;4,51999;1916,13603;0,02022
67,90000;4,52669;1919,46998;0,02026
68,00000;4,53330;1921,01486;0,02029
68,10000;4,54002;1923,48082;0,02033
68,20000;4,54669;1925,28889;0,02037
68,30000;4,55327;1928,04933;0,02041
68,40000;4,55999;1930,31803;0,02045
68,50000;4,56669;1933,06915;0,02049
68,60000;4,57336;1934,68276;0,02053
68,70000;4,57999;1937,34318;0,02057
68,80000;4,58669;1939,56476;0,02061
68,90000;4,59336;1942,19053;0,02065
69,00000;4,59999;1944,05168;0,02069
69,10000;4,60669;1946,96896;0,02073
69,20000;4,61336;1947,93101;0,02076
69,30000;4,61997;1950,58491;0,02080
69,40000;4,62663;1953,57744;0,02084
69,50000;4,63336;1955,39482;0,02088
69,60000;4,64002;1957,71661;0,02092
69,70000;4,64663;1959,76589;0,02096
69,80000;4,65333;1962,56097;0,02100
69,90000;4,66002;1965,34973;0,02104
70,00000;4,66666;1966,76906;0,02108
70,10000;4,67338;1969,73961;0,02112
70,20000;4,68005;1971,47559;0,02116
70,30000;4,68666;1974,29247;0,02120
70,40000;4,69333;1975,98133;0,02124
70,50000;4,69999;1977,97101;0,02128
70,60000;4,70669;1980,44963;0,02132
70,70000;4,71330;1982,11670;0,02135
70,80000;4,71997;1984,36957;0,02139
70,90000;4,72666;1987,03296;0,02144
71,00000;4,73327;1988,48061;0,02147
71,10000;4,73999;1991,48245;0,02152
71,20000;4,74669;1993,16517;0,02155
71,30000;4,75330;1995,50577;0,02159
71,40000;4,76002;1997,44534;0,02164
71,50000;4,76669;1999,97406;0,02167
71,60000;4,77336;2002,52775;0,02171
71,70000;4,77997;2004,82775;0,02176
71,80000;4,78666;2006,78296;0,02179
71,90000;4,79336;2009,57172;0,02183
72,00000;4,79997;2010,51179;0,02187
72,10000;4,80669;2013,72355;0,02191
72,20000;4,81333;2015,26191;0,02195
72,30000;4,81994;2017,40842;0,02199
72,40000;4,82663;2018,89984;0,02203
72,50000;4,83336;2021,13725;0,02208
72,60000;4,84002;2023,44339;0,02212
72,70000;4,84666;2025,32653;0,02216
72,80000;4,85336;2027,63285;0,02220
72,90000;4,86002;2029,87622;0,02224
73,00000;4,86663;2031,43992;0,02228
73,10000;4,87333;2034,31323;0,02232
73,20000;4,88002;2036,58491;0,02236
73,30000;4,88663;2038,58409;0,02240
73,40000;4,89336;2041,09401;0,02245
73,50000;4,90005;2042,45076;0,02249
73,60000;4,90669;2044,78521;0,02253
73,70000;4,91330;2046,46774;0,02257
73,80000;4,91997;2049,75791;0,02261
73,90000;4,92663;2051,11783;0,02265
74,00000;4,93324;2052,24901;0,02269
74,10000;4,93999;2055,10985;0,02273
74,20000;4,94669;2057,26251;0,02277
74,30000;4,95333;2058,97018;0,02282
74,40000;4,95999;2061,64289;0,02286
74,50000;4,96669;2064,18727;0,02290
74,60000;4,97336;2066,39320;0,02294
74,70000;4,97997;2068,43317;0,02298
74,80000;4,98669;2070,17846;0,02302
74,90000;4,99338;2072,45015;0,02306
75,00000;4,99997;2074,56835;0,02311
75,10000;5,00666;2076,37325;0,02315
75,20000;5,01336;2077,93359;0,02319
75,30000;5,01994;2080,40588;0,02323
75,40000;5,02663;2081,40556;0,02327
75,50000;5,03336;2083,97489;0,02331
75,60000;5,04005;2086,23409;0,02335
75,70000;5,04669;2088,21446;0,02340
75,80000;5,05336;2090,07245;0,02344
75,90000;5,06002;2091,99637;0,02348
76,00000;5,06663;2094,42489;0,02352
76,10000;5,07336;2096,63715;0,02356
76,20000;5,08002;2098,52960;0,02360
76,30000;5,08666;2100,78266;0,02365
76,40000;5,09336;2102,75985;0,02369
76,50000;5,09999;2104,74636;0,02373
76,60000;5,10669;2106,84892;0,02377
76,70000;5,11330;2108,56907;0,02381
76,80000;5,11997;2109,99791;0,02386
76,90000;5,12663;2113,12827;0,02390
77,00000;5,13330;2114,28460;0,02394
77,10000;5,14002;2116,22417;0,02398
77,20000;5,14669;2118,17622;0,02403
77,30000;5,15330;2120,13461;0,02407
77,40000;5,15997;2121,71078;0,02411
77,50000;5,16669;2123,87908;0,02416
77,60000;5,17336;2126,76805;0,02420
77,70000;5,17999;2128,11548;0,02424
77,80000;5,18672;2129,25598;0,02429
77,90000;5,19338;2132,04790;0,02433
78,00000;5,19997;2133,70863;0,02437
78,10000;5,20666;2136,36272;0,02441
78,20000;5,21333;2137,69116;0,02445
78,30000;5,21991;2139,29247;0,02449
78,40000;5,22663;2140,89360;0,02454
78,50000;5,23336;2143,56016;0,02458
78,60000;5,24002;2145,46528;0,02463
78,70000;5,24666;2147,16978;0,02467
78,80000;5,25336;2149,37571;0,02471
78,90000;5,26002;2151,35925;0,02475
79,00000;5,26663;2152,10188;0,02480
79,10000;5,27336;2155,21641;0,02484
79,20000;5,28002;2155,99034;0,02489
79,30000;5,28666;2158,39054;0,02493
79,40000;5,29333;2160,10772;0,02497
79,50000;5,30002;2161,47397;0,02502
79,60000;5,30666;2163,64842;0,02506
79,70000;5,31327;2165,50045;0,02510
79,80000;5,31999;2166,70353;0,02514
79,90000;5,32669;2169,16017;0,02519
80,00000;5,33333;2171,10924;0,02523
80,10000;5,34002;2172,49095;0,02528
80,20000;5,34669;2173,65660;0,02532
80,30000;5,35330;2176,70240;0,02536
80,40000;5,35997;2177,61099;0,02541
80,50000;5,36666;2179,14023;0,02545
80,60000;5,37336;2182,22346;0,02549
80,70000;5,37999;2183,56140;0,02554
80,80000;5,38669;2185,34432;0,02558
80,90000;5,39336;2186,56640;0,02563
81,00000;5,39997;2188,54677;0,02567
81,10000;5,40666;2190,32336;0,02571
81,20000;5,41333;2192,83327;0,02576
81,30000;5,41997;2193,70425;0,02580
81,40000;5,42666;2195,15506;0,02585
81,50000;5,43336;2196,90353;0,02589
81,60000;5,44002;2199,00608;0,02593
81,70000;5,44663;2200,84228;0,02597
81,80000;5,45333;2202,37132;0,02602
81,90000;5,46002;2204,28910;0,02606
82,00000;5,46666;2205,22899;0,02611
82,10000;5,47338;2207,68563;0,02615
82,20000;5,48002;2208,74790;0,02620
82,30000;5,48663;2211,02592;0,02624
82,40000;5,49330;2212,73992;0,02629
82,50000;5,49999;2213,82398;0,02633
82,60000;5,50666;2215,48155;0,02638
82,70000;5,51330;2217,65302;0,02642
82,80000;5,51999;2218,38318;0,02647
82,90000;5,52669;2221,02776;0,02651
83,00000;5,53333;2222,24668;0,02655
83,10000;5,54002;2223,86345;0,02660
83,20000;5,54669;2224,80670;0,02664
83,30000;5,55330;2227,25086;0,02669
83,40000;5,55999;2228,21906;0,02673
83,50000;5,56669;2230,51887;0,02678
83,60000;5,57336;2232,48359;0,02683
83,70000;5,57997;2233,88113;0,02687
83,80000;5,58666;2235,18144;0,02692
83,90000;5,59336;2237,89494;0,02696
84,00000;5,59994;2238,36824;0,02701
84,10000;5,60669;2241,25087;0,02706
84,20000;5,61336;2241,47644;0,02710
84,30000;5,61999;2242,83636;0,02715
84,40000;5,62666;2244,86068;0,02719
84,50000;5,63336;2246,58716;0,02724
84,60000;5,64002;2248,32613;0,02728
84,70000;5,64663;2249,33829;0,02733
84,80000;5,65333;2251,27470;0,02737
84,90000;5,66002;2251,83871;0,02742
85,00000;5,66663;2253,63113;0,02746
85,10000;5,67336;2256,35394;0,02751
85,20000;5,68002;2256,89616;0,02756
85,30000;5,68663;2258,58502;0,02761
85,40000;5,69330;2260,50895;0,02765
85,50000;5,69999;2261,39575;0,02769
85,60000;5,70669;2263,69873;0,02774
85,70000;5,71333;2266,06764;0,02779
85,80000;5,71999;2266,01120;0,02783
85,90000;5,72666;2267,91948;0,02788
86,00000;5,73330;2269,02869;0,02793
86,10000;5,74002;2270,90251;0,02797
86,20000;5,74669;2271,54810;0,02802
86,30000;5,75333;2273,69443;0,02807
86,40000;5,75999;2274,72223;0,02811
86,50000;5,76669;2276,05067;0,02816
86,60000;5,77336;2278,47919;0,02821
86,70000;5,77996;2279,32520;0,02825
86,80000;5,78666;2281,03921;0,02830
86,90000;5,79333;2282,26427;0,02835
87,00000;5,79997;2283,51150;0,02840
87,10000;5,80669;2285,58891;0,02845
87,20000;5,81336;2286,61038;0,02849
87,30000;5,81997;2287,34370;0,02854
87,40000;5,82663;2288,61570;0,02859
87,50000;5,83336;2290,68380;0,02864
87,60000;5,84002;2291,95282;0,02868
87,70000;5,84666;2293,28778;0,02873
87,80000;5,85336;2294,97347;0,02878
87,90000;5,86002;2295,97613;0,02883
88,00000;5,86663;2296,53083;0,02887
88,10000;5,87335;2298,68982;0,02892
88,20000;5,88002;2300,24401;0,02897
88,30000;5,88663;2301,41897;0,02902
88,40000;5,89336;2303,45260;0,02907
88,50000;5,90005;2304,09168;0,02911
88,60000;5,90672;2305,28247;0,02916
88,70000;5,91330;2306,90241;0,02921
88,80000;5,91996;2307,83615;0,02926
88,90000;5,92663;2309,05823;0,02931
89,00000;5,93327;2309,92939;0,02936
89,10000;5,93999;2311,53369;0,02941
89,20000;5,94669;2312,62408;0,02945
89,30000;5,95330;2313,69566;0,02950
89,40000;5,95996;2314,44780;0,02955
89,50000;5,96669;2316,49708;0,02960
89,60000;5,97335;2318,35507;0,02965
89,70000;5,97996;2319,35773;0,02970
89,80000;5,98669;2320,52337;0,02975
89,90000;5,99338;2320,92775;0,02980
90,00000;6,00002;2321,97102;0,02985
90,10000;6,00669;2324,59698;0,02989
90,20000;6,01335;2325,25486;0,02994
90,30000;6,01996;2325,97869;0,02999
90,40000;6,02663;2327,51407;0,03004
90,50000;6,03335;2328,16581;0,03009
90,60000;6,04005;2329,92694;0,03014
90,70000;6,04666;2330,94841;0,03019
90,80000;6,05333;2331,99801;0,03024
90,90000;6,06002;2332,66540;0,03029
91,00000;6,06660;2334,40455;0,03034
91,10000;6,07333;2334,90281;0,03039
91,20000;6,08002;2336,21877;0,03044
91,30000;6,08666;2337,96407;0,03048
91,40000;6,09335;2339,00752;0,03054
91,50000;6,10005;2339,70005;0,03058
91,60000;6,10669;2341,49862;0,03063
91,70000;6,11330;2342,29770;0,03068
91,80000;6,11999;2342,41672;0,03073
91,90000;6,12666;2343,81743;0,03078
92,00000;6,13330;2344,68523;0,03083
92,10000;6,14002;2345,48114;0,03088
92,20000;6,14669;2347,26723;0,03093
92,30000;6,15330;2348,19166;0,03098
92,40000;6,15996;2348,51744;0,03104
92,50000;6,16666;2350,19699;0,03108
92,60000;6,17335;2351,55374;0,03113
92,70000;6,17999;2353,00772;0,03118
92,80000;6,18672;2353,09862;0,03123
92,90000;6,19338;2353,83492;0,03129
93,00000;6,19999;2355,31386;0,03134
93,10000;6,20666;2356,68626;0,03139
93,20000;6,21333;2356,56090;0,03144
93,30000;6,21994;2357,64198;0,03149
93,40000;6,22663;2359,04269;0,03154
93,50000;6,23335;2359,60353;0,03159
93,60000;6,24002;2361,17337;0,03164
93,70000;6,24663;2362,32020;0,03169
93,80000;6,25335;2362,92500;0,03174
93,90000;6,26002;2363,94648;0,03179
94,00000;6,26660;2364,15006;0,03185
94,10000;6,27335;2365,35016;0,03190
94,20000;6,28002;2366,15241;0,03195
94,30000;6,28666;2367,61570;0,03200
94,40000;6,29333;2367,44341;0,03205
94,50000;6,30002;2368,54311;0,03210
94,60000;6,30669;2370,31672;0,03215
94,70000;6,31330;2371,19719;0,03221
94,80000;6,31999;2371,43841;0,03226
94,90000;6,32672;2372,47869;0,03231
95,00000;6,33333;2373,38115;0,03236
95,10000;6,34002;2374,00793;0,03241
95,20000;6,34669;2375,38032;0,03247
95,30000;6,35330;2375,47755;0,03252
95,40000;6,35996;2375,91621;0,03257
95,50000;6,36669;2377,53931;0,03262
95,60000;6,37335;2379,15926;0,03267
95,70000;6,37999;2378,86161;0,03272
95,80000;6,38669;2380,26530;0,03277
95,90000;6,39338;2380,62255;0,03283
96,00000;6,39996;2381,47490;0,03288
96,10000;6,40666;2382,33339;0,03294
96,20000;6,41333;2382,39914;0,03298
96,30000;6,41996;2383,55864;0,03304
96,40000;6,42663;2384,24484;0,03309
96,50000;6,43335;2384,94352;0,03315
96,60000;6,44002;2386,63871;0,03320
96,70000;6,44666;2387,04290;0,03325
96,80000;6,45333;2386,65119;0,03330
96,90000;6,46002;2388,28696;0,03336
97,00000;6,46666;2388,79770;0,03341
97,10000;6,47338;2389,14546;0,03346
97,20000;6,48008;2388,86029;0,03351
97,30000;6,48666;2390,71846;0,03357
97,40000;6,49333;2391,02561;0,03362
97,50000;6,49999;2391,84014;0,03367
97,60000;6,50666;2392,07204;0,03372
97,70000;6,51327;2392,85547;0,03378
97,80000;6,51999;2394,06191;0,03383
97,90000;6,52666;2395,03011;0,03389
98,00000;6,53327;2394,48491;0,03394
98,10000;6,54002;2396,08921;0,03399
98,20000;6,54669;2396,85066;0,03405
98,30000;6,55330;2397,02910;0,03410
98,40000;6,55999;2397,56182;0,03415
98,50000;6,56669;2398,51754;0,03421
98,60000;6,57335;2398,83400;0,03426
98,70000;6,57999;2399,63923;0,03431
98,80000;6,58669;2400,40068;0,03437
98,90000;6,59338;2400,59812;0,03442
99,00000;6,59996;2401,11202;0,03447
99,10000;6,60669;2401,75743;0,03453
99,20000;6,61338;2401,82653;0,03459
99,30000;6,61996;2402,70998;0,03464
99,40000;6,62663;2403,08605;0,03470
99,50000;6,63335;2403,71581;0,03475
99,60000;6,64002;2404,49607;0,03480
99,70000;6,64663;2405,21058;0,03486
99,80000;6,65333;2405,11969;0,03491
99,90000;6,66002;2406,21958;0,03497
100,00000;6,66666;2406,50456;0,03502
100,10000;6,67335;2406,48892;0,03508
100,20000;6,68002;2406,92142;0,03513
100,30000;6,68663;2408,04628;0,03518
100,40000;6,69333;2408,41601;0,03524
100,50000;6,69999;2408,61662;0,03530
100,60000;6,70669;2409,11487;0,03535
100,70000;6,71330;2408,62593;0,03541
100,80000;6,71996;2409,99218;0,03546
100,90000;6,72666;2410,29300;0,03552
101,00000;6,73330;2410,22091;0,03557
101,10000;6,73999;2410,53738;0,03563
101,20000;6,74669;2411,63410;0,03568
101,30000;6,75333;2412,00700;0,03574
101,40000;6,76002;2412,28584;0,03579
101,50000;6,76672;2412,59914;0,03585
101,60000;6,77335;2412,74014;0,03591
101,70000;6,77996;2412,70568;0,03596
101,80000;6,78666;2413,93093;0,03602
101,90000;6,79333;2413,52357;0,03607
102,00000;6,79996;2414,35710;0,03613
102,10000;6,80669;2414,86151;0,03619
102,20000;6,81333;2415,15283;0,03624
102,30000;6,81994;2414,61396;0,03630
102,40000;6,82666;2415,74831;0,03635
102,50000;6,83335;2415,90496;0,03641
102,60000;6,84002;2416,87633;0,03647
102,70000;6,84666;2416,07726;0,03652
102,80000;6,85335;2416,58166;0,03658
102,90000;6,86005;2417,42469;0,03664
103,00000;6,86666;2417,45915;0,03669
103,10000;6,87335;2417,68472;0,03675
103,20000;6,88002;2418,02931;0,03680
103,30000;6,88663;2418,39606;0,03686
103,40000;6,89333;2418,22060;0,03692
103,50000;6,90005;2418,60915;0,03698
103,60000;6,90669;2419,08543;0,03703
103,70000;6,91330;2418,54955;0,03709
103,80000;6,91999;2419,93442;0,03715
103,90000;6,92666;2420,19463;0,03720
104,00000;6,93327;2418,40538;0,03726
104,10000;6,94002;2419,95640;0,03732
104,20000;6,94672;2420,68022;0,03737
104,30000;6,95333;2420,31999;0,03743
104,40000;6,96002;2420,48595;0,03749
104,50000;6,96672;2420,99352;0,03755
104,60000;6,97335;2420,72102;0,03760
104,70000;6,97996;2421,69239;0,03766
104,80000;6,98669;2422,05895;0,03772
104,90000;6,99338;2421,18482;0,03778
105,00000;6,99996;2421,66407;0,03783
105,10000;7,00663;2422,30333;0,03789
105,20000;7,01333;2421,94626;0,03794
105,30001;7,01991;2422,67940;0,03800
105,40001;7,02660;2422,08410;0,03806
105,50001;7,03335;2422,30333;0,03812
105,60001;7,04005;2422,55721;0,03818
105,70001;7,04669;2422,90497;0,03823
105,80001;7,05335;2422,74832;0,03829
105,90001;7,06002;2422,93943;0,03835
106,00001;7,06663;2423,03349;0,03841
106,10001;7,07335;2423,08993;0,03847
106,20001;7,08002;2423,25906;0,03852
106,30001;7,08666;2423,85752;0,03858
106,40001;7,09335;2423,90763;0,03864
106,50001;7,10002;2424,17715;0,03870
106,60001;7,10669;2424,11457;0,03876
106,70001;7,11330;2423,19331;0,03881
106,80001;7,11996;2423,22460;0,03887
106,90001;7,12663;2424,44668;0,03893
107,00001;7,13330;2423,52858;0,03899
107,10001;7,14005;2423,61631;0,03905
107,20001;7,14672;2424,18963;0,03911
107,30001;7,15330;2424,76314;0,03916
107,40001;7,15996;2424,81325;0,03922
107,50001;7,16669;2424,17715;0,03928
107,60001;7,17335;2425,11407;0,03934
107,70001;7,18002;2424,36212;0,03939
107,80001;7,18672;2424,59700;0,03945
107,90001;7,19338;2423,83555;0,03951
108,00001;7,19996;2424,26805;0,03957
108,10001;7,20666;2425,32082;0,03963
108,20001;7,21332;2424,76948;0,03969
108,30001;7,21993;2424,69106;0,03975
108,40001;7,22663;2424,29934;0,03981
108,50001;7,23335;2424,12072;0,03986
108,60001;7,24002;2424,53124;0,03992
108,70001;7,24666;2424,37460;0,03998
108,80001;7,25332;2424,48747;0,04004
108,90001;7,25999;2424,46866;0,04010
109,00001;7,26660;2424,92296;0,04016
109,10001;7,27333;2424,22111;0,04022
109,20001;7,28002;2423,75415;0,04028
109,30001;7,28666;2424,52193;0,04034
109,40001;7,29333;2424,31816;0,04040
109,50001;7,30002;2424,35895;0,04046
109,60001;7,30669;2424,43718;0,04052
109,70001;7,31330;2423,62879;0,04057
109,80001;7,31999;2423,06795;0,04063
109,90001;7,32672;2423,86069;0,04069
110,00001;7,33335;2423,56621;0,04075
110,10001;7,34005;2423,09924;0,04081
110,20001;7,34669;2423,16499;0,04087
110,30001;7,35330;2423,72602;0,04093
110,40001;7,35999;2423,14320;0,04099
110,50001;7,36669;2423,67275;0,04105
110,60001;7,37335;2422,98655;0,04111
110,70001;7,37999;2423,33747;0,04117
110,80001;7,38669;2423,49412;0,04123
110,90001;7,39338;2422,95824;0,04129
111,00001;7,39999;2422,83605;0,04135
111,10001;7,40666;2422,89249;0,04141
111,20001;7,41333;2422,17183;0,04147
111,30001;7,41996;2423,06162;0,04152
111,40001;7,42666;2422,20312;0,04158
111,50001;7,43335;2421,60782;0,04164
111,60001;7,44002;2422,57286;0,04171
111,70001;7,44666;2421,79893;0,04177
111,80001;7,45333;2421,15967;0,04183
111,90001;7,46002;2422,06212;0,04189
112,00001;7,46669;2422,51959;0,04195
112,10001;7,47338;2421,42286;0,04201
112,20001;7,48002;2421,31632;0,04207
112,30001;7,48663;2421,24740;0,04213
112,40001;7,49330;2421,07194;0,04219
112,50001;7,49996;2420,20078;0,04225
112,60001;7,50666;2421,14402;0,04231
112,70001;7,51330;2419,63994;0,04237
112,80001;7,51999;2420,27286;0,04243
112,90001;7,52669;2419,73400;0,04249
113,00001;7,53332;2418,96324;0,04255
113,10001;7,54002;2419,30466;0,04261
113,20001;7,54669;2418,98187;0,04267
113,30001;7,55330;2419,21376;0,04273
113,40001;7,55999;2418,34894;0,04279
113,50001;7,56669;2418,53390;0,04285
113,60001;7,57335;2418,40538;0,04291
113,70001;7,57996;2417,99802;0,04297
113,80001;7,58669;2418,02000;0,04303
113,90001;7,59335;2417,81641;0,04310
114,00001;7,59993;2417,37142;0,04316
114,10001;7,60669;2417,50926;0,04322
114,20001;7,61338;2416,89514;0,04328
114,30001;7,61996;2416,92327;0,04334
114,40001;7,62669;2416,57235;0,04340
114,50001;7,63335;2416,26222;0,04346
114,60001;7,64002;2416,43768;0,04352
114,70001;7,64663;2416,00201;0,04359
114,80001;7,65332;2415,68871;0,04365
114,90001;7,66002;2415,60098;0,04371
115,00001;7,66666;2416,14617;0,04377
115,10001;7,67333;2414,91478;0,04383
115,20001;7,68002;2414,75180;0,04389
115,30001;7,68663;2415,44116;0,04396
115,40001;7,69332;2414,62030;0,04402
115,50001;7,70002;2413,70220;0,04408
115,60001;7,70669;2414,11254;0,04414
115,70001;7,71332;2413,50159;0,04419
115,74001;7,71600;2127,62970;0,04359
115,74401;7,71626;1872,87591;0,04262
115,74801;7,71654;1586,05482;0,04102
115,75001;7,71666;1439,80840;0,04007
