Text Inputs : Specimen label;"1"
Dimension : Length;50,00000;mm
Dimension : Final length;100,00000;mm
Test : Rate 1;4,00000;mm/min
General : Unique Identifier;"{61A2B5D9-EB7E-44AC-A31E-43B9893B0C17}"

Time;Extension;Load;Strain 1
(sec);(mm);(N);(mm/mm)
0,00000;0,00000;-1,02317;0,00000
0,10000;0,00405;-1,16104;0,00000
0,20000;0,01020;-0,47169;0,00000
0,30000;0,01718;4,34438;0,00001
0,40000;0,02442;12,60096;0,00007
0,50000;0,03177;21,52809;0,00012
0,60000;0,03900;29,86613;0,00018
0,70000;0,04601;36,81920;0,00023
0,80000;0,05293;43,27092;0,00028
0,90000;0,05977;49,39991;0,00033
1,00000;0,06647;56,23391;0,00037
1,10000;0,07325;59,86869;0,00040
1,20000;0,07994;62,19369;0,00043
1,30000;0,08664;64,05493;0,00045
1,40000;0,09333;64,38395;0,00046
1,50000;0,10003;65,23938;0,00048
1,60000;0,10670;66,20133;0,00049
1,70000;0,11330;66,02273;0,00049
1,80000;0,12000;66,06660;0,00050
1,90000;0,12667;66,90635;0,00051
2,00000;0,13333;66,69955;0,00052
2,10000;0,14006;67,51111;0,00052
2,20000;0,14669;67,85892;0,00053
2,30000;0,15328;66,90949;0,00054
2,40000;0,15997;68,60468;0,00055
2,50000;0,16667;68,10959;0,00055
2,60000;0,17333;69,10289;0,00056
2,70000;0,18000;68,59527;0,00056
2,80000;0,18672;69,49770;0,00057
2,90000;0,19339;69,19375;0,00057
3,00000;0,19997;69,13736;0,00058
3,10000;0,20667;69,55724;0,00058
3,20000;0,21333;69,22822;0,00058
3,30000;0,21991;70,66960;0,00058
3,40000;0,22664;70,00219;0,00059
3,50000;0,23336;70,67274;0,00059
3,60000;0,24003;71,19601;0,00059
3,70000;0,24664;69,94264;0,00059
3,80000;0,25333;70,61320;0,00059
3,90000;0,26000;71,11768;0,00060
4,00000;0,26661;71,28689;0,00060
4,10000;0,27333;71,23048;0,00060
4,20000;0,28003;71,37462;0,00060
4,30000;0,28669;71,27748;0,00060
4,40000;0,29333;70,66020;0,00060
4,50000;0,30000;72,26765;0,00060
4,60000;0,30667;72,09218;0,00061
4,70000;0,31328;72,14231;0,00061
4,80000;0,31997;72,14544;0,00061
4,90000;0,32672;72,29898;0,00061
5,00000;0,33333;72,64679;0,00061
5,10000;0,34003;73,35182;0,00061
5,20000;0,34669;72,61232;0,00061
5,30000;0,35330;72,92253;0,00062
5,40000;0,35997;74,00357;0,00062
5,50000;0,36667;74,47045;0,00062
5,60000;0,37336;74,84646;0,00062
5,70000;0,38003;74,76499;0,00062
5,80000;0,38669;74,77439;0,00062
5,90000;0,39336;75,36347;0,00063
6,00000;0,39997;76,75785;0,00063
6,10000;0,40667;77,61954;0,00063
6,20000;0,41333;78,20862;0,00064
6,30000;0,41994;79,16432;0,00064
6,40000;0,42664;80,81876;0,00065
6,50000;0,43333;82,56722;0,00066
6,60000;0,44003;84,26240;0,00067
6,70000;0,44664;86,30226;0,00068
6,80000;0,45333;89,32288;0,00071
6,90000;0,46000;95,48947;0,00074
7,00000;0,46667;99,45012;0,00077
7,10000;0,47339;104,74561;0,00080
7,20000;0,48006;108,38978;0,00082
7,30000;0,48667;111,92429;0,00085
7,40000;0,49333;115,46192;0,00087
7,50000;0,50000;120,13073;0,00090
7,60000;0,50667;124,33578;0,00093
7,70000;0,51330;128,59097;0,00095
7,80000;0,51997;133,29738;0,00099
7,90000;0,52667;137,62778;0,00102
8,00000;0,53328;142,43445;0,00105
8,10000;0,54000;147,35706;0,00109
8,20000;0,54669;152,13867;0,00112
8,30000;0,55328;156,34686;0,00116
8,40000;0,56000;162,16877;0,00119
8,50000;0,56672;167,34832;0,00123
8,60000;0,57339;172,14245;0,00127
8,70000;0,58000;176,85200;0,00130
8,80000;0,58669;181,63046;0,00134
8,90000;0,59336;186,73795;0,00137
9,00000;0,59997;192,16505;0,00141
9,10000;0,60669;196,61137;0,00144
9,20000;0,61336;200,64409;0,00148
9,30000;0,61997;205,36615;0,00151
9,40000;0,62664;210,43292;0,00154
9,50000;0,63333;215,54979;0,00157
9,60000;0,64000;219,41958;0,00161
9,70000;0,64664;223,17970;0,00164
9,80000;0,65333;228,24644;0,00168
9,90000;0,66003;233,35079;0,00171
10,00000;0,66667;237,68430;0,00175
10,10000;0,67336;242,80434;0,00179
10,20000;0,68003;249,51927;0,00183
10,30000;0,68664;253,42351;0,00187
10,40000;0,69333;258,51845;0,00191
10,50000;0,70003;263,81081;0,00196
10,60000;0,70669;269,13765;0,00199
10,70000;0,71330;273,69051;0,00203
10,80000;0,71997;278,10549;0,00207
10,90000;0,72667;283,41352;0,00211
11,00000;0,73328;288,78734;0,00215
11,10000;0,74000;292,93913;0,00219
11,20000;0,74669;297,36666;0,00223
11,30000;0,75333;302,33942;0,00227
11,40000;0,76003;306,77321;0,00231
11,50000;0,76672;311,76789;0,00235
11,60000;0,77336;316,27377;0,00239
11,70000;0,77997;319,78006;0,00242
11,80000;0,78667;324,17940;0,00246
11,90000;0,79333;328,69154;0,00250
12,00000;0,79997;332,59890;0,00253
12,10000;0,80667;337,60299;0,00257
12,20000;0,81333;340,81789;0,00261
12,30000;0,81994;345,22975;0,00264
12,40000;0,82664;349,40033;0,00268
12,50000;0,83333;353,07899;0,00271
12,60000;0,84003;358,28359;0,00275
12,70000;0,84667;361,53609;0,00279
12,80000;0,85336;365,66281;0,00282
12,90000;0,86003;369,51066;0,00286
13,00000;0,86664;373,85046;0,00289
13,10000;0,87333;378,21219;0,00293
13,20000;0,88003;381,91276;0,00296
13,30000;0,88664;386,59724;0,00300
13,40000;0,89336;390,27587;0,00304
13,50000;0,90006;395,21414;0,00307
13,60000;0,90669;398,95233;0,00311
13,70000;0,91330;402,77508;0,00314
13,80000;0,91997;405,85212;0,00317
13,90000;0,92664;411,36066;0,00321
14,00000;0,93328;414,05857;0,00324
14,10000;0,94000;418,14144;0,00327
14,20000;0,94669;422,24932;0,00330
14,30000;0,95330;424,74042;0,00334
14,40000;0,96000;427,39129;0,00337
14,50000;0,96669;433,02518;0,00340
14,60000;0,97336;436,07401;0,00343
14,70000;0,97997;439,76204;0,00347
14,80000;0,98669;443,73209;0,00350
14,90000;0,99336;446,70887;0,00353
15,00000;0,99997;450,06163;0,00356
15,10000;1,00664;454,32309;0,00359
15,20000;1,01333;457,62570;0,00362
15,30000;1,01994;460,88761;0,00366
15,40000;1,02661;464,87958;0,00369
15,50000;1,03336;467,82815;0,00372
15,60000;1,04006;471,43158;0,00375
15,70000;1,04669;474,86271;0,00378
15,80000;1,05336;478,83587;0,00382
15,90000;1,06003;481,91915;0,00385
16,00000;1,06664;485,77329;0,00388
16,10000;1,07333;489,77151;0,00391
16,20000;1,08003;493,55356;0,00395
16,30000;1,08664;496,25146;0,00398
16,40000;1,09333;499,67314;0,00401
16,50000;1,10000;503,47401;0,00404
16,60000;1,10667;506,78914;0,00407
16,70000;1,11330;509,79098;0,00410
16,80000;1,11997;512,96828;0,00413
16,90000;1,12664;517,06368;0,00417
17,00000;1,13330;520,37258;0,00420
17,10000;1,14003;524,07938;0,00423
17,20000;1,14669;527,90530;0,00426
17,30000;1,15330;530,31803;0,00429
17,40000;1,15997;534,88347;0,00432
17,50000;1,16669;537,80694;0,00436
17,60000;1,17336;541,22237;0,00439
17,70000;1,18000;544,55008;0,00442
17,80000;1,18669;548,20366;0,00445
17,90000;1,19336;551,51568;0,00448
18,00000;1,19997;555,25070;0,00452
18,10000;1,20667;558,34339;0,00455
18,20000;1,21333;562,52340;0,00458
18,30000;1,21991;566,14252;0,00461
18,40000;1,22664;568,94380;0,00464
18,50000;1,23339;572,19942;0,00468
18,60000;1,24006;575,61798;0,00471
18,70000;1,24669;579,47212;0,00474
18,80000;1,25336;582,74027;0,00477
18,90000;1,26003;585,01200;0,00480
19,00000;1,26664;589,64947;0,00484
19,10000;1,27336;593,37509;0,00487
19,20000;1,28003;596,02284;0,00490
19,30000;1,28664;600,22166;0,00493
19,40000;1,29330;603,46476;0,00497
19,50000;1,30000;606,00280;0,00500
19,60000;1,30667;610,48986;0,00503
19,70000;1,31327;612,83996;0,00506
19,80000;1,32000;616,83194;0,00509
19,90000;1,32672;619,67708;0,00512
20,00000;1,33336;623,80694;0,00516
20,10000;1,34006;627,43546;0,00519
20,20000;1,34669;630,92294;0,00522
20,30000;1,35330;633,11006;0,00525
20,40000;1,35997;637,00806;0,00528
20,50000;1,36669;640,38588;0,00532
20,60000;1,37336;643,19656;0,00535
20,70000;1,37997;647,43608;0,00538
20,80000;1,38667;650,84840;0,00541
20,90000;1,39336;653,38020;0,00545
21,00000;1,39997;657,11527;0,00548
21,10000;1,40664;659,94789;0,00551
21,20000;1,41333;663,42913;0,00554
21,30000;1,41994;666,05806;0,00557
21,40000;1,42666;670,16599;0,00560
21,50000;1,43336;672,75418;0,00563
21,60000;1,44003;676,38583;0,00566
21,70000;1,44664;678,98971;0,00569
21,80000;1,45333;682,51793;0,00573
21,90000;1,46003;684,72386;0,00575
22,00000;1,46667;688,90071;0,00579
22,10000;1,47339;692,12816;0,00582
22,20000;1,48003;695,45899;0,00585
22,30000;1,48664;698,08792;0,00588
22,40000;1,49333;700,98010;0,00591
22,50000;1,50000;704,51144;0,00594
22,60000;1,50666;707,46625;0,00597
22,70000;1,51327;709,62207;0,00600
22,80000;1,52000;713,63910;0,00603
22,90000;1,52669;716,41533;0,00606
23,00000;1,53330;719,74616;0,00609
23,10000;1,54003;722,58506;0,00612
23,20000;1,54669;726,02555;0,00615
23,30000;1,55330;728,55423;0,00618
23,40000;1,56000;731,25837;0,00621
23,50000;1,56669;734,73020;0,00624
23,60000;1,57336;737,56594;0,00627
23,70000;1,57997;739,71236;0,00630
23,80000;1,58666;743,64478;0,00633
23,90000;1,59336;746,23926;0,00636
24,00000;1,59997;749,35076;0,00639
24,10000;1,60669;752,54687;0,00642
24,20000;1,61339;755,89963;0,00645
24,30000;1,62000;758,49099;0,00648
24,40000;1,62666;761,71840;0,00651
24,50000;1,63336;764,69514;0,00654
24,60000;1,64003;768,11998;0,00657
24,70000;1,64664;770,42305;0,00660
24,80000;1,65333;773,07080;0,00663
24,90000;1,66003;776,94999;0,00666
25,00000;1,66664;779,68235;0,00669
25,10000;1,67333;782,90664;0,00672
25,20000;1,68003;786,38783;0,00675
25,30000;1,68664;788,99171;0,00678
25,40000;1,69330;791,49846;0,00681
25,50000;1,70000;794,44386;0,00684
25,60000;1,70669;798,19774;0,00687
25,70000;1,71333;800,07780;0,00690
25,80000;1,72000;803,69376;0,00693
25,90000;1,72666;806,85848;0,00696
26,00000;1,73330;809,75061;0,00699
26,10000;1,74003;813,75828;0,00702
26,20000;1,74669;816,64110;0,00705
26,30000;1,75330;818,51175;0,00708
26,40000;1,76000;822,04305;0,00711
26,50000;1,76669;824,09550;0,00714
26,60000;1,77336;828,68598;0,00717
26,70000;1,77997;831,00777;0,00720
26,80000;1,78666;833,69007;0,00723
26,90000;1,79333;837,40624;0,00726
27,00000;1,79997;840,08537;0,00729
27,10000;1,80666;842,75194;0,00733
27,20000;1,81336;845,89468;0,00736
27,30000;1,81994;848,71789;0,00738
27,40000;1,82664;851,35624;0,00742
27,50000;1,83336;855,12269;0,00745
27,60000;1,84003;857,19069;0,00748
27,70000;1,84666;860,13610;0,00751
27,80000;1,85336;864,30050;0,00754
27,90000;1,86003;867,53732;0,00757
28,00000;1,86664;868,85644;0,00760
28,10000;1,87333;872,40348;0,00763
28,20000;1,88003;875,92239;0,00766
28,30000;1,88664;877,86820;0,00769
28,40000;1,89336;880,41564;0,00772
28,50000;1,90005;884,74611;0,00775
28,60000;1,90669;886,41616;0,00778
28,70000;1,91330;890,02587;0,00781
28,80000;1,91997;893,00582;0,00785
28,90000;1,92664;896,27709;0,00787
29,00000;1,93327;898,61462;0,00791
29,10000;1,94003;901,59448;0,00794
29,20000;1,94669;904,83446;0,00797
29,30000;1,95330;906,98395;0,00800
29,40000;1,95997;910,81299;0,00803
29,50000;1,96669;913,21319;0,00806
29,60000;1,97336;916,07096;0,00809
29,70000;1,97997;919,79029;0,00812
29,80000;1,98669;921,45102;0,00816
29,90000;1,99339;924,93854;0,00819
30,00000;2,00000;927,87771;0,00822
30,10000;2,00669;930,69458;0,00825
30,20000;2,01336;934,03794;0,00828
30,30000;2,01994;936,14049;0,00831
30,40000;2,02664;939,10163;0,00834
30,50000;2,03336;942,02822;0,00837
30,60000;2,04005;945,26820;0,00840
30,70000;2,04666;947,32996;0,00843
30,80000;2,05333;951,19039;0,00846
30,90000;2,06000;954,26738;0,00849
31,00000;2,06661;956,91830;0,00852
31,10000;2,07330;959,76964;0,00855
31,20000;2,08000;963,43262;0,00858
31,30000;2,08664;965,59785;0,00862
31,40000;2,09336;968,46176;0,00865
31,50000;2,10003;971,99939;0,00868
31,60000;2,10669;974,11452;0,00871
31,70000;2,11330;977,52679;0,00874
31,80000;2,11997;980,12127;0,00877
31,90000;2,12664;983,24846;0,00880
32,00000;2,13330;985,69253;0,00883
32,10000;2,14003;990,06677;0,00886
32,20000;2,14669;991,83712;0,00889
32,30000;2,15330;994,59458;0,00892
32,40000;2,15997;997,47106;0,00895
32,50000;2,16666;1000,51984;0,00899
32,60000;2,17333;1003,90399;0,00902
32,70000;2,18000;1007,53251;0,00905
32,80000;2,18669;1009,39376;0,00908
32,90000;2,19339;1012,51146;0,00911
33,00000;2,20000;1015,66687;0,00914
33,10000;2,20669;1018,53712;0,00917
33,20000;2,21333;1021,64540;0,00921
33,30000;2,21994;1024,01432;0,00924
33,40000;2,22666;1027,02240;0,00927
33,50000;2,23336;1030,11820;0,00930
33,60000;2,24003;1032,71268;0,00933
33,70000;2,24664;1035,71136;0,00936
33,80000;2,25333;1038,78845;0,00939
33,90000;2,26000;1041,90307;0,00943
34,00000;2,26661;1044,58528;0,00946
34,10000;2,27336;1048,19499;0,00949
34,20000;2,28003;1050,26923;0,00953
34,30000;2,28669;1053,11442;0,00956
34,40000;2,29333;1057,44172;0,00959
34,50000;2,30003;1059,16820;0,00962
34,60000;2,30669;1061,95072;0,00965
34,70000;2,31330;1065,30655;0,00968
34,80000;2,32000;1067,67230;0,00971
34,90000;2,32669;1071,78027;0,00974
35,00000;2,33330;1073,39080;0,00978
35,10000;2,34000;1076,90021;0,00981
35,20000;2,34666;1079,98354;0,00984
35,30000;2,35325;1082,23958;0,00987
35,40000;2,35991;1085,72403;0,00990
35,50000;2,36666;1088,17117;0,00994
35,60000;2,37336;1091,49888;0,00997
35,70000;2,38005;1094,49131;0,01000
35,80000;2,38672;1096,37761;0,01003
35,90000;2,39339;1100,68610;0,01007
36,00000;2,40000;1102,66013;0,01010
36,10000;2,40669;1106,26360;0,01013
36,20000;2,41336;1108,47577;0,01016
36,30000;2,41997;1111,02322;0,01019
36,40000;2,42666;1114,54837;0,01022
36,50000;2,43333;1116,93293;0,01026
36,60000;2,44000;1119,81565;0,01029
36,70000;2,44664;1123,13395;0,01032
36,80000;2,45330;1125,68773;0,01035
36,90000;2,45997;1129,53866;0,01038
37,00000;2,46666;1131,80410;0,01042
37,10000;2,47339;1134,31402;0,01045
37,20000;2,48005;1137,25634;0,01048
37,30000;2,48666;1140,25502;0,01051
37,40000;2,49333;1142,92158;0,01055
37,50000;2,50003;1146,20849;0,01058
37,60000;2,50669;1149,42966;0,01061
37,70000;2,51330;1152,40011;0,01064
37,80000;2,52000;1154,21442;0,01067
37,90000;2,52669;1158,08733;0,01071
38,00000;2,53330;1160,26504;0,01074
38,10000;2,54000;1163,18539;0,01077
38,20000;2,54666;1166,33140;0,01080
38,30000;2,55327;1168,67200;0,01083
38,40000;2,55997;1172,18774;0,01087
38,50000;2,56669;1174,49397;0,01090
38,60000;2,57336;1177,64929;0,01093
38,70000;2,57997;1180,84224;0,01097
38,80000;2,58666;1183,03569;0,01100
38,90000;2,59336;1186,31944;0,01103
39,00000;2,59997;1189,83518;0,01107
39,10000;2,60669;1191,71841;0,01110
39,20000;2,61339;1194,51024;0,01113
39,30000;2,61997;1197,31463;0,01116
39,40000;2,62666;1200,72700;0,01119
39,50000;2,63336;1203,07701;0,01123
39,60000;2,64003;1206,19796;0,01126
39,70000;2,64661;1208,91770;0,01129
39,80000;2,65333;1211,90706;0,01133
39,90000;2,66003;1216,45052;0,01136
40,00000;2,66666;1219,15461;0,01139
40,10000;2,67336;1220,70881;0,01143
40,20000;2,68003;1223,57905;0,01146
40,30000;2,68664;1226,67169;0,01150
40,40000;2,69330;1229,59521;0,01153
40,50000;2,70000;1232,13334;0,01156
40,60000;2,70666;1235,50175;0,01159
40,70000;2,71330;1238,44398;0,01163
40,80000;2,71997;1240,88805;0,01166
40,90000;2,72666;1244,34736;0,01169
41,00000;2,73330;1247,36177;0,01173
41,10000;2,74003;1249,79950;0,01176
41,20000;2,74669;1252,88907;0,01179
41,30000;2,75333;1255,84081;0,01183
41,40000;2,76003;1258,70472;0,01186
41,50000;2,76672;1260,61300;0,01189
41,60000;2,77336;1265,04367;0,01193
41,70000;2,77997;1268,00789;0,01196
41,80000;2,78666;1270,14490;0,01200
41,90000;2,79333;1273,07773;0,01203
42,00000;2,79997;1275,77875;0,01206
42,10000;2,80666;1279,01249;0,01210
42,20000;2,81333;1282,34960;0,01213
42,30000;2,81994;1284,18580;0,01216
42,40000;2,82663;1287,20636;0,01220
42,50000;2,83333;1290,28969;0,01223
42,60000;2,84003;1293,48580;0,01227
42,70000;2,84666;1296,80093;0,01230
42,80000;2,85336;1298,58069;0,01233
42,90000;2,86003;1301,57936;0,01236
43,00000;2,86666;1304,16760;0,01240
43,10000;2,87336;1307,80553;0,01243
43,20000;2,88003;1310,87312;0,01247
43,30000;2,88666;1312,91617;0,01250
43,40000;2,89336;1316,31903;0,01253
43,50000;2,90005;1318,35891;0,01257
43,60000;2,90669;1321,36382;0,01260
43,70000;2,91330;1323,76719;0,01263
43,80000;2,91997;1326,58416;0,01267
43,90000;2,92663;1330,40380;0,01270
44,00000;2,93327;1331,87026;0,01274
44,10000;2,94000;1335,41729;0,01277
44,20000;2,94669;1338,44726;0,01281
44,30000;2,95330;1340,30851;0,01284
44,40000;2,96000;1343,27281;0,01287
44,50000;2,96669;1346,08662;0,01291
44,60000;2,97336;1349,36729;0,01294
44,70000;2,98000;1351,75185;0,01298
44,80000;2,98669;1354,58130;0,01301
44,90000;2,99339;1357,31054;0,01305
45,00000;2,99997;1360,46903;0,01308
45,10000;3,00663;1362,60912;0,01312
45,20000;3,01333;1365,82088;0,01315
45,30000;3,01994;1367,83887;0,01319
45,40000;3,02663;1371,04122;0,01322
45,50000;3,03336;1374,19337;0,01325
45,60000;3,04005;1376,59675;0,01329
45,70000;3,04669;1379,51709;0,01332
45,80000;3,05336;1382,85737;0,01335
45,90000;3,06003;1385,65861;0,01339
46,00000;3,06666;1387,64838;0,01342
46,10000;3,07333;1390,75667;0,01346
46,20000;3,08002;1392,70881;0,01349
46,30000;3,08663;1395,87047;0,01353
46,40000;3,09333;1398,98192;0,01356
46,50000;3,10002;1401,46362;0,01359
46,60000;3,10666;1404,29940;0,01363
46,70000;3,11330;1407,07241;0,01366
46,80000;3,11997;1409,41311;0,01370
46,90000;3,12663;1413,17323;0,01373
47,00000;3,13330;1415,09399;0,01377
47,10000;3,14003;1418,03315;0,01380
47,20000;3,14669;1420,21403;0,01384
47,30000;3,15330;1423,20022;0,01387
47,40000;3,15997;1426,20197;0,01390
47,50000;3,16669;1429,19132;0,01394
47,60000;3,17336;1432,15237;0,01397
47,70000;3,18002;1435,05707;0,01401
47,80000;3,18672;1436,37620;0,01404
47,90000;3,19339;1440,48734;0,01408
48,00000;3,19997;1443,14757;0,01411
48,10000;3,20666;1445,84235;0,01415
48,20000;3,21333;1449,28284;0,01418
48,30000;3,21991;1450,83703;0,01422
48,40000;3,22663;1453,53489;0,01425
48,50000;3,23336;1456,83438;0,01429
48,60000;3,24002;1458,93060;0,01432
48,70000;3,24666;1462,84429;0,01436
48,80000;3,25333;1464,89041;0,01439
48,90000;3,26002;1467,33131;0,01443
49,00000;3,26663;1470,00421;0,01446
49,10000;3,27333;1473,03734;0,01450
49,20000;3,28002;1475,48765;0,01453
49,30000;3,28663;1478,74951;0,01457
49,40000;3,29333;1481,68560;0,01461
49,50000;3,30000;1484,30513;0,01464
49,60000;3,30666;1487,31004;0,01468
49,70000;3,31327;1489,15565;0,01471
49,80000;3,32000;1491,70626;0,01475
49,90000;3,32672;1494,12211;0,01478
50,00000;3,33336;1497,19920;0,01482
50,10000;3,34005;1499,71843;0,01485
50,20000;3,34672;1503,16209;0,01489
50,30000;3,35330;1505,34604;0,01492
50,40000;3,35997;1507,68049;0,01496
50,50000;3,36666;1510,49746;0,01499
50,60000;3,37336;1513,72170;0,01503
50,70000;3,37997;1516,32875;0,01506
50,80000;3,38666;1518,95769;0,01510
50,90000;3,39336;1521,66178;0,01513
51,00000;3,39997;1524,37221;0,01517
51,10000;3,40666;1526,57814;0,01521
51,20000;3,41333;1529,39511;0,01524
51,30000;3,41994;1531,88305;0,01528
51,40000;3,42666;1534,94440;0,01531
51,50000;3,43336;1536,84644;0,01535
51,60000;3,44002;1540,12712;0,01539
51,70000;3,44663;1543,22917;0,01542
51,80000;3,45333;1545,49778;0,01545
51,90000;3,46002;1547,90739;0,01549
52,00000;3,46666;1550,98131;0,01552
52,10000;3,47336;1553,71362;0,01556
52,20000;3,48002;1556,11699;0,01560
52,30000;3,48663;1558,77098;0,01563
52,40000;3,49330;1561,67252;0,01567
52,50000;3,50000;1563,71556;0,01571
52,60000;3,50666;1567,05249;0,01574
52,70000;3,51330;1569,56557;0,01578
52,80000;3,52000;1572,12559;0,01581
52,90000;3,52669;1574,43490;0,01585
53,00000;3,53333;1577,49001;0,01589
53,10000;3,54002;1579,38879;0,01592
53,20000;3,54669;1581,59174;0,01596
53,30000;3,55330;1584,67814;0,01599
53,40000;3,56000;1587,58909;0,01603
53,50000;3,56669;1589,96414;0,01606
53,60000;3,57336;1593,00994;0,01610
53,70000;3,57997;1596,63204;0,01614
53,80000;3,58669;1597,86977;0,01617
53,90000;3,59336;1600,06955;0,01621
54,00000;3,59994;1603,08387;0,01625
54,10000;3,60669;1605,50904;0,01628
54,20000;3,61339;1608,20074;0,01632
54,30000;3,61997;1611,09604;0,01636
54,40000;3,62666;1613,90677;0,01639
54,50000;3,63336;1616,17529;0,01643
54,60000;3,64002;1619,12385;0,01647
54,70000;3,64663;1621,93142;0,01650
54,80000;3,65333;1623,87416;0,01654
54,90000;3,66000;1626,63776;0,01658
55,00000;3,66661;1629,84338;0,01661
55,10000;3,67333;1632,60382;0,01665
55,20000;3,68002;1635,12006;0,01669
55,30000;3,68663;1637,84288;0,01672
55,40000;3,69330;1640,22744;0,01676
55,50000;3,70000;1643,05065;0,01680
55,60000;3,70669;1645,82375;0,01683
55,70000;3,71333;1648,45902;0,01687
55,80000;3,72000;1650,84042;0,01691
55,90000;3,72666;1653,11527;0,01694
56,00000;3,73330;1655,26159;0,01698
56,10000;3,74002;1658,54227;0,01702
56,20000;3,74669;1661,02089;0,01705
56,30000;3,75333;1663,24880;0,01709
56,40000;3,76000;1665,79317;0,01713
56,50000;3,76669;1667,50401;0,01716
56,60000;3,77336;1671,24532;0,01720
56,70000;3,77997;1672,94666;0,01724
56,80000;3,78666;1675,67283;0,01728
56,90000;3,79333;1678,33939;0,01732
57,00000;3,79997;1680,36036;0,01735
57,10000;3,80666;1683,36853;0,01739
57,20000;3,81336;1685,94737;0,01743
57,30000;3,81997;1688,18459;0,01746
57,40000;3,82663;1690,75076;0,01750
57,50000;3,83336;1693,34225;0,01754
57,60000;3,84002;1696,24053;0,01758
57,70000;3,84666;1699,04809;0,01761
57,80000;3,85336;1701,06292;0,01765
57,90000;3,86002;1703,19043;0,01769
58,00000;3,86663;1706,10771;0,01772
58,10000;3,87333;1708,85269;0,01776
58,20000;3,88002;1711,61946;0,01780
58,30000;3,88663;1713,39288;0,01784
58,40000;3,89336;1716,24124;0,01788
58,50000;3,90005;1718,07427;0,01792
58,60000;3,90669;1721,48664;0,01795
58,70000;3,91330;1723,60484;0,01799
58,80000;3,91997;1725,29370;0,01803
58,90000;3,92663;1728,02601;0,01807
59,00000;3,93327;1729,81527;0,01810
59,10000;3,94000;1733,20882;0,01814
59,20000;3,94669;1734,98541;0,01818
59,30000;3,95330;1737,45770;0,01822
59,40000;3,96000;1739,53511;0,01825
59,50000;3,96669;1741,76618;0,01829
59,60000;3,97336;1746,05586;0,01833
59,70000;3,97997;1747,90137;0,01837
59,80000;3,98669;1749,78767;0,01841
59,90000;3,99339;1752,55146;0,01845
60,00000;4,00000;1754,33122;0,01848
60,10000;4,00669;1757,27028;0,01852
60,20000;4,01333;1759,76139;0,01856
60,30000;4,01994;1762,48439;0,01860
60,40000;4,02660;1764,09483;0,01864
60,50000;4,03336;1766,62039;0,01868
60,60000;4,04002;1769,05505;0,01872
60,70000;4,04666;1772,18542;0,01875
60,80000;4,05333;1773,87130;0,01879
60,90000;4,06005;1776,54400;0,01883
61,00000;4,06663;1778,70300;0,01887
61,10000;4,07333;1781,09054;0,01891
61,20000;4,08002;1783,96087;0,01895
61,30000;4,08666;1786,04461;0,01899
61,40000;4,09336;1787,81189;0,01903
61,50000;4,10005;1790,00199;0,01907
61,60000;4,10669;1793,17314;0,01910
61,70000;4,11330;1795,14401;0,01914
61,80000;4,11997;1797,34994;0,01918
61,90000;4,12666;1799,44001;0,01922
62,00000;4,13327;1801,86834;0,01926
62,10000;4,14000;1804,97039;0,01929
62,20000;4,14666;1806,84105;0,01933
62,30000;4,15327;1809,81476;0,01937
62,40000;4,15997;1811,90465;0,01941
62,50000;4,16666;1814,13256;0,01945
62,60000;4,17336;1816,59851;0,01949
62,70000;4,18002;1819,37162;0,01953
62,80000;4,18672;1820,58122;0,01957
62,90000;4,19339;1823,64248;0,01960
63,00000;4,20000;1826,32171;0,01964
63,10000;4,20666;1828,69360;0,01968
63,20000;4,21333;1830,86507;0,01972
63,30000;4,21994;1832,44739;0,01976
63,40000;4,22661;1835,17989;0,01980
63,50000;4,23336;1837,39197;0,01984
63,60000;4,24002;1840,65700;0,01988
63,70000;4,24663;1842,16425;0,01992
63,80000;4,25333;1844,40464;0,01995
63,90000;4,26000;1847,01793;0,01999
64,00000;4,26660;1848,96681;0,02003
64,10000;4,27336;1851,69298;0,02008
64,20000;4,28005;1853,74226;0,02012
64,30000;4,28666;1856,27081;0,02015
64,40000;4,29333;1858,41415;0,02019
64,50000;4,29999;1860,94902;0,02023
64,60000;4,30669;1863,43398;0,02027
64,70000;4,31330;1864,75627;0,02031
64,80000;4,31999;1867,63890;0,02035
64,90000;4,32672;1870,27734;0,02039
65,00000;4,33333;1872,16680;0,02043
65,10000;4,34002;1874,32878;0,02047
65,20000;4,34669;1877,15515;0,02051
65,30000;4,35330;1879,07591;0,02055
65,40000;4,35994;1880,66456;0,02059
65,50000;4,36669;1883,64759;0,02063
65,60000;4,37336;1885,81590;0,02067
65,70000;4,38002;1888,65177;0,02071
65,80000;4,38669;1890,60383;0,02075
65,90000;4,39339;1892,29269;0,02079
66,00000;4,39999;1894,45484;0,02083
66,10000;4,40666;1896,63563;0,02087
66,20000;4,41333;1899,62815;0,02091
66,30000;4,41994;1901,72121;0,02095
66,40000;4,42663;1903,37561;0,02099
66,50000;4,43333;1905,93880;0,02103
66,60000;4,44002;1908,23246;0,02107
66,70000;4,44663;1910,35699;0,02111
66,80000;4,45333;1913,23031;0,02115
66,90000;4,45999;1914,80331;0,02119
67,00000;4,46666;1917,03420;0,02123
67,10000;4,47339;1918,94248;0,02127
67,20000;4,48002;1921,14841;0,02131
67,30000;4,48666;1923,68347;0,02135
67,40000;4,49333;1925,58225;0,02139
67,50000;4,49999;1927,33705;0,02143
67,60000;4,50666;1929,75905;0,02147
67,70000;4,51330;1931,68931;0,02151
67,80000;4,51997;1933,75424;0,02155
67,90000;4,52666;1936,02908;0,02159
68,00000;4,53330;1938,10649;0,02163
68,10000;4,53999;1940,90158;0,02168
68,20000;4,54669;1943,23286;0,02172
68,30000;4,55330;1944,42049;0,02176
68,40000;4,55999;1947,43164;0,02180
68,50000;4,56672;1948,87612;0,02184
68,60000;4,57338;1951,36722;0,02189
68,70000;4,57999;1953,39136;0,02193
68,80000;4,58669;1955,15547;0,02197
68,90000;4,59336;1957,63726;0,02201
69,00000;4,59997;1960,07807;0,02205
69,10000;4,60669;1961,90812;0,02209
69,20000;4,61336;1963,68154;0,02213
69,30000;4,61997;1965,91578;0,02218
69,40000;4,62663;1967,57335;0,02222
69,50000;4,63333;1969,40321;0,02226
69,60000;4,63999;1972,13236;0,02230
69,70000;4,64660;1974,84903;0,02234
69,80000;4,65333;1976,61016;0,02238
69,90000;4,66002;1978,82541;0,02243
70,00000;4,66666;1980,56754;0,02247
70,10000;4,67338;1983,13706;0,02251
70,20000;4,68005;1985,09861;0,02255
70,30000;4,68666;1987,56456;0,02260
70,40000;4,69333;1989,17836;0,02264
70,50000;4,69999;1991,50331;0,02268
70,60000;4,70669;1992,76283;0,02272
70,70000;4,71330;1995,30404;0,02276
70,80000;4,71997;1997,17786;0,02280
70,90000;4,72666;1998,93266;0,02284
71,00000;4,73330;2001,11661;0,02289
71,10000;4,73999;2003,40096;0,02293
71,20000;4,74669;2005,32172;0,02297
71,30000;4,75333;2007,34902;0,02301
71,40000;4,76002;2008,92203;0,02306
71,50000;4,76672;2010,85210;0,02310
71,60000;4,77336;2012,85761;0,02314
71,70000;4,77999;2015,22019;0,02318
71,80000;4,78666;2017,28828;0,02323
71,90000;4,79333;2019,71978;0,02327
72,00000;4,79997;2021,13930;0,02331
72,10000;4,80666;2023,45792;0,02335
72,20000;4,81333;2025,57929;0,02339
72,30000;4,81994;2027,31211;0,02344
72,40000;4,82663;2029,03859;0,02348
72,50000;4,83333;2031,22888;0,02352
72,60000;4,83999;2033,13082;0,02357
72,70000;4,84663;2034,94187;0,02361
72,80000;4,85333;2036,79074;0,02365
72,90000;4,86002;2038,98400;0,02369
73,00000;4,86666;2041,35608;0,02374
73,10000;4,87336;2043,13584;0,02378
73,20000;4,88002;2044,90945;0,02382
73,30000;4,88666;2046,99002;0,02387
73,40000;4,89336;2049,55935;0,02391
73,50000;4,90005;2050,38339;0,02395
73,60000;4,90669;2052,42652;0,02400
73,70000;4,91330;2054,71385;0,02404
73,80000;4,91997;2056,12071;0,02408
73,90000;4,92666;2058,66508;0,02413
74,00000;4,93327;2059,41405;0,02417
74,10000;4,93999;2062,28737;0,02421
74,20000;4,94669;2064,30536;0,02426
74,30000;4,95333;2066,02551;0,02430
74,40000;4,95999;2068,36928;0,02434
74,50000;4,96669;2069,50679;0,02439
74,60000;4,97336;2071,89135;0,02443
74,70000;4,97997;2073,80261;0,02448
74,80000;4,98666;2076,29688;0,02452
74,90000;4,99338;2078,31804;0,02456
75,00000;4,99997;2079,19851;0,02461
75,10000;5,00666;2080,90935;0,02465
75,20000;5,01333;2083,30322;0,02469
75,30000;5,01994;2085,01723;0,02474
75,40000;5,02663;2086,41477;0,02478
75,50000;5,03336;2088,58941;0,02482
75,60000;5,04005;2089,93349;0,02487
75,70000;5,04669;2092,55945;0,02491
75,80000;5,05336;2094,14493;0,02496
75,90000;5,06002;2096,09084;0,02500
76,00000;5,06666;2098,58175;0,02505
76,10000;5,07336;2099,86661;0,02509
76,20000;5,08002;2101,47407;0,02514
76,30000;5,08666;2103,57960;0,02518
76,40000;5,09336;2105,16211;0,02522
76,50000;5,09999;2106,57828;0,02527
76,60000;5,10669;2108,34555;0,02531
76,70000;5,11330;2110,06273;0,02536
76,80000;5,11997;2111,77673;0,02540
76,90000;5,12666;2113,65670;0,02545
77,00000;5,13333;2116,08820;0,02549
77,10000;5,14005;2118,09985;0,02554
77,20000;5,14669;2119,08389;0,02559
77,30000;5,15330;2121,08605;0,02563
77,40000;5,15999;2122,38338;0,02568
77,50000;5,16669;2123,87796;0,02572
77,60000;5,17336;2126,26886;0,02577
77,70000;5,18002;2128,37756;0,02581
77,80000;5,18672;2128,68787;0,02586
77,90000;5,19338;2130,95639;0,02591
78,00000;5,19997;2133,84219;0,02595
78,10000;5,20666;2134,71334;0,02600
78,20000;5,21333;2136,85036;0,02604
78,30000;5,21991;2138,79310;0,02609
78,40000;5,22660;2139,64544;0,02613
78,50000;5,23336;2141,66641;0,02618
78,60000;5,24002;2143,42736;0,02623
78,70000;5,24666;2145,15701;0,02627
78,80000;5,25336;2146,42603;0,02632
78,90000;5,26002;2148,56006;0,02636
79,00000;5,26663;2149,90117;0,02641
79,10000;5,27336;2151,74984;0,02646
79,20000;5,28002;2153,50762;0,02651
79,30000;5,28666;2155,52878;0,02655
79,40000;5,29333;2156,30587;0,02660
79,50000;5,29999;2158,10128;0,02665
79,60000;5,30666;2160,24760;0,02669
79,70000;5,31327;2160,96826;0,02674
79,80000;5,31999;2162,78266;0,02678
79,90000;5,32669;2164,27725;0,02683
80,00000;5,33333;2166,46437;0,02688
80,10000;5,34002;2167,60803;0,02693
80,20000;5,34672;2169,09964;0,02697
80,30000;5,35330;2171,06733;0,02702
80,40000;5,35999;2172,30506;0,02707
80,50000;5,36669;2173,39229;0,02711
80,60000;5,37336;2175,43226;0,02716
80,70000;5,37999;2177,39381;0,02721
80,80000;5,38669;2179,14842;0,02725
80,90000;5,39336;2179,84729;0,02730
81,00000;5,39999;2182,18789;0,02735
81,10000;5,40666;2183,27213;0,02739
81,20000;5,41333;2185,18656;0,02744
81,30000;5,41997;2185,95434;0,02749
81,40000;5,42666;2188,17908;0,02753
81,50000;5,43336;2188,99064;0,02758
81,60000;5,44002;2190,30343;0,02763
81,70000;5,44663;2192,84147;0,02768
81,80000;5,45333;2193,60292;0,02772
81,90000;5,45999;2195,87162;0,02777
82,00000;5,46666;2196,86795;0,02782
82,10000;5,47338;2197,96151;0,02787
82,20000;5,48002;2200,12367;0,02791
82,30000;5,48663;2201,12316;0,02796
82,40000;5,49333;2202,76825;0,02801
82,50000;5,49999;2203,70516;0,02806
82,60000;5,50666;2205,88278;0,02811
82,70000;5,51330;2207,07357;0,02816
82,80000;5,51999;2208,41467;0,02820
82,90000;5,52669;2210,05343;0,02825
83,00000;5,53333;2211,30047;0,02830
83,10000;5,54002;2212,51007;0,02835
83,20000;5,54669;2214,11753;0,02840
83,30000;5,55327;2215,12336;0,02845
83,40000;5,55999;2216,34544;0,02849
83,50000;5,56669;2218,34760;0,02854
83,60000;5,57336;2220,61314;0,02859
83,70000;5,57997;2221,60630;0,02864
83,80000;5,58669;2222,79076;0,02869
83,90000;5,59336;2224,48595;0,02874
84,00000;5,59997;2225,80526;0,02879
84,10000;5,60669;2226,69505;0,02884
84,20000;5,61338;2227,91713;0,02889
84,30000;5,61999;2229,77530;0,02894
84,40000;5,62666;2230,85936;0,02898
84,50000;5,63336;2231,56121;0,02903
84,60000;5,64002;2233,21579;0,02908
84,70000;5,64663;2234,85772;0,02913
84,80000;5,65330;2236,08278;0,02918
84,90000;5,66002;2237,90649;0,02923
85,00000;5,66663;2239,12541;0,02928
85,10000;5,67333;2241,04933;0,02933
85,20000;5,68002;2242,20548;0,02938
85,30000;5,68663;2242,78513;0,02943
85,40000;5,69330;2243,58737;0,02948
85,50000;5,69999;2246,26027;0,02953
85,60000;5,70669;2246,67694;0,02958
85,70000;5,71333;2248,13707;0,02963
85,80000;5,71999;2250,37131;0,02968
85,90000;5,72666;2250,67511;0,02973
86,00000;5,73330;2252,42674;0,02978
86,10000;5,74002;2253,80547;0,02983
86,20000;5,74669;2254,01856;0,02988
86,30000;5,75333;2255,31273;0,02993
86,40000;5,75999;2257,17388;0,02998
86,50000;5,76669;2258,07000;0,03003
86,60000;5,77336;2258,98493;0,03008
86,70000;5,77996;2259,99393;0,03013
86,80000;5,78666;2261,25363;0,03018
86,90000;5,79333;2263,40313;0,03023
87,00000;5,79994;2264,41845;0,03028
87,10000;5,80666;2265,77204;0,03033
87,20000;5,81336;2266,41744;0,03038
87,30000;5,81997;2267,74607;0,03043
87,40000;5,82666;2268,25681;0,03049
87,50000;5,83336;2270,17142;0,03054
87,60000;5,84002;2271,01110;0,03059
87,70000;5,84666;2271,90405;0,03064
87,80000;5,85336;2273,24516;0,03069
87,90000;5,86002;2274,36703;0,03074
88,00000;5,86663;2275,58911;0,03079
88,10000;5,87333;2277,17776;0,03085
88,20000;5,88002;2278,07388;0,03090
88,30000;5,88663;2279,28963;0,03095
88,40000;5,89336;2280,20772;0,03100
88,50000;5,90005;2281,10384;0,03106
88,60000;5,90669;2282,37286;0,03111
88,70000;5,91330;2284,14964;0,03116
88,80000;5,91996;2284,81386;0,03121
88,90000;5,92666;2285,65056;0,03127
89,00000;5,93330;2286,91641;0,03132
89,10000;5,93999;2288,12899;0,03137
89,20000;5,94669;2288,96253;0,03142
89,30000;5,95330;2289,59862;0,03147
89,40000;5,95999;2290,20342;0,03153
89,50000;5,96669;2291,87980;0,03158
89,60000;5,97335;2292,75711;0,03164
89,70000;5,97996;2294,21407;0,03169
89,80000;5,98669;2295,04444;0,03174
89,90000;5,99335;2296,00649;0,03180
90,00000;5,99999;2296,67388;0,03185
90,10000;6,00666;2298,24055;0,03190
90,20000;6,01333;2298,82021;0,03196
90,30000;6,01994;2300,36825;0,03201
90,40000;6,02663;2300,05179;0,03206
90,50000;6,03335;2302,36109;0,03212
90,60000;6,04005;2303,42634;0,03217
90,70000;6,04666;2303,83370;0,03222
90,80000;6,05333;2304,61713;0,03228
90,90000;6,06002;2305,38175;0,03233
91,00000;6,06663;2306,73533;0,03239
91,10000;6,07333;2307,86968;0,03244
91,20000;6,08002;2308,74699;0,03249
91,30000;6,08666;2310,12255;0,03255
91,40000;6,09335;2310,47980;0,03260
91,50000;6,10005;2311,08442;0,03266
91,60000;6,10669;2312,28154;0,03271
91,70000;6,11330;2312,74199;0,03277
91,80000;6,11996;2314,47481;0,03282
91,90000;6,12663;2314,72868;0,03288
92,00000;6,13330;2316,37377;0,03293
92,10000;6,14002;2316,64628;0,03298
92,20000;6,14669;2317,52060;0,03304
92,30000;6,15330;2318,43237;0,03310
92,40000;6,15999;2318,54524;0,03315
92,50000;6,16669;2320,40957;0,03320
92,60000;6,17335;2321,23043;0,03326
92,70000;6,18002;2321,31202;0,03332
92,80000;6,18672;2321,78196;0,03337
92,90000;6,19338;2322,84106;0,03343
93,00000;6,19999;2324,83074;0,03348
93,10000;6,20669;2324,87153;0,03354
93,20000;6,21333;2325,60486;0,03359
93,30000;6,21994;2325,89301;0,03365
93,40000;6,22663;2326,92398;0,03370
93,50000;6,23335;2327,39709;0,03376
93,60000;6,24002;2328,43421;0,03381
93,70000;6,24663;2329,14239;0,03387
93,80000;6,25333;2330,22664;0,03393
93,90000;6,25999;2330,94413;0,03398
94,00000;6,26660;2331,91866;0,03404
94,10000;6,27335;2332,75518;0,03410
94,20000;6,28005;2332,97460;0,03415
94,30000;6,28669;2333,28789;0,03421
94,40000;6,29335;2334,61335;0,03427
94,50000;6,30002;2335,22747;0,03432
94,60000;6,30669;2335,97960;0,03438
94,70000;6,31330;2336,44024;0,03443
94,80000;6,31999;2337,17337;0,03449
94,90000;6,32672;2337,56825;0,03455
95,00000;6,33333;2338,48318;0,03461
95,10000;6,33999;2339,34168;0,03467
95,20000;6,34669;2340,09996;0,03473
95,30000;6,35327;2340,35067;0,03478
95,40000;6,35994;2341,25312;0,03484
95,50000;6,36666;2341,58523;0,03490
95,60000;6,37335;2343,06734;0,03496
95,70000;6,38002;2343,26795;0,03501
95,80000;6,38672;2342,88555;0,03507
95,90000;6,39338;2343,91969;0,03513
96,00000;6,39999;2344,62153;0,03519
96,10000;6,40666;2346,13176;0,03524
96,20000;6,41335;2346,31673;0,03530
96,30000;6,41996;2346,72725;0,03536
96,40000;6,42663;2347,30374;0,03542
96,50000;6,43333;2347,53564;0,03548
96,60000;6,44002;2348,93933;0,03554
96,70000;6,44663;2348,77653;0,03560
96,80000;6,45333;2349,68513;0,03566
96,90000;6,45999;2350,30875;0,03572
97,00000;6,46666;2350,74740;0,03578
97,10000;6,47338;2351,40231;0,03583
97,20000;6,48005;2351,61223;0,03589
97,30000;6,48666;2351,56212;0,03595
97,40000;6,49333;2352,06652;0,03601
97,50000;6,49999;2352,82481;0,03607
97,60000;6,50666;2354,07501;0,03613
97,70000;6,51330;2354,43544;0,03619
97,80000;6,51999;2354,82398;0,03625
97,90000;6,52666;2354,99013;0,03631
98,00000;6,53330;2355,18124;0,03637
98,10000;6,54002;2356,46591;0,03643
98,20000;6,54669;2355,87675;0,03649
98,30000;6,55330;2356,35620;0,03655
98,40000;6,55999;2357,09883;0,03661
98,50000;6,56669;2357,61590;0,03667
98,60000;6,57338;2358,12031;0,03673
98,70000;6,57999;2358,71561;0,03679
98,80000;6,58669;2359,53033;0,03685
98,90000;6,59335;2359,62123;0,03691
99,00000;6,59996;2359,62123;0,03697
99,10000;6,60669;2359,83431;0,03703
99,20000;6,61335;2360,18524;0,03709
99,30000;6,61996;2360,84331;0,03715
99,40000;6,62666;2361,05956;0,03721
99,50000;6,63338;2361,54515;0,03727
99,60000;6,64002;2362,02460;0,03733
99,70000;6,64663;2362,00262;0,03739
99,80000;6,65333;2362,78921;0,03745
99,90000;6,66002;2363,62256;0,03751
100,00000;6,66669;2363,52235;0,03757
100,10000;6,67338;2363,61325;0,03763
100,20000;6,68005;2363,76673;0,03770
100,30000;6,68666;2364,51253;0,03776
100,40000;6,69333;2363,89842;0,03782
100,50000;6,70002;2365,15179;0,03788
100,60000;6,70666;2364,83850;0,03794
100,70000;6,71330;2365,76274;0,03800
100,80000;6,71994;2365,54034;0,03806
100,90000;6,72663;2365,20506;0,03812
101,00000;6,73327;2365,66570;0,03819
101,10000;6,73999;2366,54934;0,03825
101,20000;6,74669;2367,64289;0,03831
101,30000;6,75333;2367,56448;0,03837
101,40000;6,76005;2367,65537;0,03844
101,50000;6,76672;2366,95036;0,03850
101,60000;6,77338;2367,42031;0,03856
101,70000;6,77999;2368,60793;0,03862
101,80000;6,78669;2368,84300;0,03868
101,90000;6,79335;2368,65170;0,03875
102,00000;6,79999;2368,17542;0,03881
102,10000;6,80669;2368,78023;0,03887
102,20000;6,81335;2369,70149;0,03893
102,30000;6,81994;2368,83033;0,03900
102,40000;6,82663;2368,65804;0,03906
102,50000;6,83333;2369,90824;0,03912
102,60000;6,83999;2369,61693;0,03919
102,70000;6,84663;2370,06191;0,03925
102,80000;6,85333;2370,73246;0,03931
102,90000;6,86002;2370,27183;0,03937
103,00000;6,86666;2370,83901;0,03944
103,10000;6,87335;2371,64106;0,03950
103,20000;6,88005;2370,59761;0,03957
103,30000;6,88666;2370,75742;0,03963
103,40000;6,89335;2371,55017;0,03969
103,50000;6,90008;2371,12399;0,03975
103,60000;6,90669;2371,82602;0,03982
103,70000;6,91330;2370,76692;0,03988
103,80000;6,91999;2372,00763;0,03994
103,90000;6,92666;2372,47460;0,04000
104,00000;6,93327;2371,34341;0,04007
104,10000;6,93999;2371,99198;0,04013
104,20000;6,94669;2372,83483;0,04020
104,30000;6,95333;2372,13299;0,04026
104,40000;6,95999;2372,17061;0,04033
104,50000;6,96669;2372,24586;0,04039
104,60000;6,97335;2372,46212;0,04046
104,70000;6,97996;2372,96969;0,04052
104,80000;6,98669;2372,85364;0,04059
104,90000;6,99338;2372,81919;0,04065
105,00000;6,99996;2372,57164;0,04072
105,10000;7,00666;2373,44597;0,04078
105,20000;7,01333;2372,95702;0,04085
105,30001;7,01993;2372,90077;0,04091
105,40001;7,02663;2372,65322;0,04098
105,50001;7,03335;2372,96019;0,04104
105,60001;7,04005;2373,75293;0,04111
105,70001;7,04669;2373,48974;0,04118
105,80001;7,05335;2373,58697;0,04124
105,90001;7,06002;2373,62459;0,04130
106,00001;7,06663;2373,87214;0,04137
106,10001;7,07333;2374,13216;0,04144
106,20001;7,08002;2374,21673;0,04150
106,30001;7,08666;2374,36723;0,04157
106,40001;7,09333;2373,64024;0,04164
106,50001;7,10002;2373,80322;0,04170
106,60001;7,10669;2373,40201;0,04177
106,70001;7,11330;2374,46744;0,04183
106,80001;7,11996;2373,48657;0,04190
106,90001;7,12666;2373,51488;0,04196
107,00001;7,13330;2373,63707;0,04203
107,10001;7,14005;2374,25119;0,04210
107,20001;7,14669;2373,64639;0,04216
107,30001;7,15330;2374,31396;0,04223
107,40001;7,15996;2373,58063;0,04230
107,50001;7,16666;2374,48309;0,04236
107,60001;7,17335;2374,32010;0,04243
107,70001;7,17999;2374,32960;0,04250
107,80001;7,18669;2373,65905;0,04257
107,90001;7,19335;2373,47092;0,04264
108,00001;7,19996;2373,64639;0,04270
108,10001;7,20669;2373,56499;0,04277
108,20001;7,21335;2372,88810;0,04283
108,30001;7,21993;2373,24536;0,04290
108,40001;7,22666;2373,32992;0,04297
108,50001;7,23338;2373,03544;0,04303
108,60001;7,24005;2373,39586;0,04311
108,70001;7,24666;2373,15446;0,04317
108,80001;7,25332;2372,92573;0,04324
108,90001;7,25999;2373,09188;0,04330
109,00001;7,26663;2373,24536;0,04337
109,10001;7,27333;2373,52420;0,04344
109,20001;7,28002;2372,89760;0,04351
109,30001;7,28663;2372,20824;0,04358
109,40001;7,29330;2372,84433;0,04364
109,50001;7,29999;2372,90394;0,04371
109,60001;7,30666;2372,27082;0,04378
109,70001;7,31327;2373,00098;0,04385
109,80001;7,31999;2372,18942;0,04391
109,90001;7,32672;2371,67869;0,04398
110,00001;7,33335;2371,68800;0,04405
110,10001;7,34008;2371,35906;0,04412
110,20001;7,34672;2371,65056;0,04419
110,30001;7,35330;2371,36539;0,04425
110,40001;7,35999;2371,92623;0,04432
110,50001;7,36669;2371,92307;0,04439
110,60001;7,37335;2371,22122;0,04446
110,70001;7,37999;2371,86980;0,04453
110,80001;7,38669;2371,55017;0,04460
110,90001;7,39335;2370,54434;0,04467
111,00001;7,39996;2370,85763;0,04474
111,10001;7,40666;2371,21806;0,04481
111,20001;7,41333;2370,28114;0,04487
111,30001;7,41996;2370,41283;0,04494
111,40001;7,42666;2369,93656;0,04501
111,50001;7,43335;2369,55099;0,04508
111,60001;7,44002;2369,85814;0,04515
111,70001;7,44663;2370,13698;0,04522
111,80001;7,45333;2369,70466;0,04529
111,90001;7,46002;2369,63257;0,04536
112,00001;7,46669;2369,45078;0,04543
112,10001;7,47338;2369,58247;0,04550
112,20001;7,48002;2367,92788;0,04557
112,30001;7,48663;2369,12798;0,04563
112,40001;7,49333;2368,44495;0,04570
112,50001;7,50002;2367,90925;0,04577
112,60001;7,50666;2368,18809;0,04584
112,70001;7,51330;2367,31060;0,04591
112,80001;7,51999;2367,40150;0,04598
112,90001;7,52669;2367,17910;0,04605
113,00001;7,53332;2367,15712;0,04612
113,10001;7,54002;2367,15395;0,04619
113,20001;7,54669;2367,09453;0,04626
113,30001;7,55330;2366,79371;0,04633
113,40001;7,55996;2366,61192;0,04640
113,50001;7,56669;2366,56815;0,04647
113,60001;7,57332;2366,27348;0,04654
113,70001;7,57996;2366,21089;0,04660
113,80001;7,58666;2366,22021;0,04668
113,90001;7,59335;2365,28330;0,04675
114,00001;7,59996;2365,85680;0,04682
114,10001;7,60672;2365,48074;0,04689
114,20001;7,61341;2364,38718;0,04696
114,30001;7,61999;2363,96734;0,04703
114,40001;7,62669;2364,27430;0,04710
114,50001;7,63335;2363,92971;0,04717
114,60001;7,64002;2363,20905;0,04724
114,70001;7,64663;2363,86713;0,04731
114,80001;7,65332;2362,88942;0,04738
114,90001;7,66002;2363,03359;0,04745
115,00001;7,66663;2362,89576;0,04752
115,10001;7,67333;2363,14330;0,04759
115,20001;7,68002;2362,48206;0,04766
115,30001;7,68663;2362,57929;0,04774
115,40001;7,69330;2362,93320;0,04781
115,50001;7,69999;2362,20639;0,04788
115,60001;7,70669;2362,30344;0,04795
115,70001;7,71330;2360,96866;0,04802
115,80001;7,71999;2361,25998;0,04809
115,90001;7,72669;2360,74310;0,04816
116,00001;7,73332;2360,18207;0,04823
116,10001;7,74005;2360,52368;0,04830
116,20001;7,74671;2359,79669;0,04838
116,30001;7,75332;2359,36120;0,04844
116,40001;7,75999;2359,85629;0,04851
116,50001;7,76669;2359,80619;0,04859
116,60001;7,77335;2358,59342;0,04866
116,70001;7,77996;2359,21387;0,04873
116,80001;7,78666;2358,37102;0,04880
116,90001;7,79335;2358,60907;0,04887
117,00001;7,79999;2357,19606;0,04894
117,10001;7,80669;2358,04208;0,04901
117,20001;7,81335;2357,29311;0,04908
117,30001;7,81993;2356,91406;0,04916
117,40001;7,82663;2357,29311;0,04923
117,50001;7,83335;2355,73575;0,04930
117,60001;7,84002;2356,08667;0,04938
117,70001;7,84666;2355,22501;0,04945
117,80001;7,85335;2355,47572;0,04952
117,90001;7,86002;2355,65752;0,04959
118,00001;7,86663;2355,38799;0,04966
118,10001;7,87335;2354,62338;0,04973
118,20001;7,88002;2354,53881;0,04980
118,30001;7,88666;2354,68931;0,04988
118,40001;7,89335;2353,79934;0,04995
118,50001;7,90005;2353,68647;0,05002
118,60001;7,90671;2353,45773;0,05009
118,70001;7,91330;2353,06304;0,05016
118,80001;7,91999;2353,08800;0,05024
118,90001;7,92663;2352,09484;0,05031
119,00001;7,93327;2351,23616;0,05038
119,10001;7,93999;2351,93502;0,05045
119,18801;7,94589;2351,40547;0,05052
119,28801;7,95250;2350,94484;0,05059
119,29401;7,95290;2350,83196;0,05059
119,39401;7,95945;2350,22418;0,05066
119,49401;7,96614;2350,70046;0,05074
119,58201;7,97204;2055,60066;0,05404
119,58601;7,97230;1803,05280;0,05729
119,59001;7,97255;1521,12916;0,06107
119,59201;7,97270;1378,26372;0,06299
