Text Inputs : Specimen label;"1"
Dimension : Length;50,00000;mm
Dimension : Final length;100,00000;mm
Test : Rate 1;4,00000;mm/min
General : Unique Identifier;"{9BCA8691-ABFD-4D24-9A8E-2F2CC0E78452}"

Time;Extension;Load;Strain 1
(sec);(mm);(N);(mm/mm)
0,00000;0,00000;-0,17356;0,00001
0,10000;0,00402;-0,07016;0,00000
0,20000;0,01020;-0,18610;0,00000
0,30000;0,01715;5,75174;0,00001
0,40000;0,02442;12,86148;0,00007
0,50000;0,03177;21,62881;0,00013
0,60000;0,03900;28,98610;0,00018
0,70000;0,04601;35,95171;0,00023
0,80000;0,05291;41,22839;0,00028
0,90000;0,05977;47,95585;0,00032
1,00000;0,06650;53,81536;0,00037
1,10000;0,07328;59,88167;0,00041
1,20000;0,08000;64,45961;0,00045
1,30000;0,08664;70,06531;0,00049
1,40000;0,09336;72,14276;0,00050
1,50000;0,10003;73,89121;0,00052
1,60000;0,10670;74,12935;0,00052
1,70000;0,11330;75,11638;0,00053
1,80000;0,11997;73,97268;0,00053
1,90000;0,12667;74,44270;0,00054
2,00000;0,13330;75,00045;0,00054
2,10000;0,14003;75,32006;0,00054
2,20000;0,14667;75,42033;0,00054
2,30000;0,15328;75,21352;0,00054
2,40000;0,15997;76,07208;0,00055
2,50000;0,16667;74,85631;0,00055
2,60000;0,17333;76,54210;0,00055
2,70000;0,18000;77,36619;0,00056
2,80000;0,18672;76,37916;0,00056
2,90000;0,19339;76,82097;0,00056
3,00000;0,20000;76,66430;0,00057
3,10000;0,20667;77,65446;0,00057
3,20000;0,21333;77,59492;0,00057
3,30000;0,21991;77,26279;0,00057
3,40000;0,22664;77,33798;0,00057
3,50000;0,23336;77,40066;0,00058
3,60000;0,24003;77,29098;0,00058
3,70000;0,24664;78,64463;0,00058
3,80000;0,25333;76,91184;0,00058
3,90000;0,26000;77,86753;0,00059
4,00000;0,26661;77,70146;0,00059
4,10000;0,27333;77,84247;0,00059
4,20000;0,28003;76,83351;0,00059
4,30000;0,28669;77,29412;0,00059
4,40000;0,29333;77,25338;0,00059
4,50000;0,30000;76,94945;0,00060
4,60000;0,30667;78,15581;0,00060
4,70000;0,31330;77,63566;0,00060
4,80000;0,32000;77,23458;0,00060
4,90000;0,32672;77,27218;0,00060
5,00000;0,33333;77,22204;0,00060
5,10000;0,34003;77,22204;0,00060
5,20000;0,34669;77,54479;0,00060
5,30000;0,35328;77,26279;0,00061
5,40000;0,35994;77,64193;0,00061
5,50000;0,36667;77,08417;0,00061
5,60000;0,37336;77,16878;0,00061
5,70000;0,38003;77,99288;0,00061
5,80000;0,38669;77,32545;0,00062
5,90000;0,39336;77,48839;0,00062
6,00000;0,39997;78,47229;0,00062
6,10000;0,40664;79,46872;0,00063
6,20000;0,41333;78,78250;0,00063
6,30000;0,41994;78,58822;0,00063
6,40000;0,42667;78,75116;0,00064
6,50000;0,43333;80,01393;0,00064
6,60000;0,44003;79,97006;0,00065
6,70000;0,44664;79,95126;0,00066
6,80000;0,45333;80,32727;0,00066
6,90000;0,46000;81,18897;0,00067
7,00000;0,46667;81,65898;0,00068
7,10000;0,47339;84,13439;0,00070
7,20000;0,48006;86,27138;0,00071
7,30000;0,48664;89,56147;0,00074
7,40000;0,49330;94,27415;0,00077
7,50000;0,49997;96,94383;0,00080
7,60000;0,50664;102,18292;0,00084
7,70000;0,51328;107,81995;0,00087
7,80000;0,51997;113,13111;0,00091
7,90000;0,52667;118,35452;0,00095
8,00000;0,53328;123,54661;0,00099
8,10000;0,54000;128,96744;0,00103
8,20000;0,54667;134,02479;0,00107
8,30000;0,55328;139,69002;0,00111
8,40000;0,56000;145,02311;0,00115
8,50000;0,56672;149,71072;0,00119
8,60000;0,57339;155,06888;0,00123
8,70000;0,58000;160,36750;0,00127
8,80000;0,58669;164,96110;0,00132
8,90000;0,59336;171,10888;0,00135
9,00000;0,59997;175,35153;0,00140
9,10000;0,60669;181,19852;0,00143
9,20000;0,61336;186,42193;0,00147
9,30000;0,61997;191,41975;0,00151
9,40000;0,62664;196,39563;0,00155
9,50000;0,63333;200,91715;0,00159
9,60000;0,64000;205,47942;0,00163
9,70000;0,64661;211,10079;0,00167
9,80000;0,65333;215,51577;0,00171
9,90000;0,66003;220,59819;0,00175
10,00000;0,66669;224,91920;0,00179
10,10000;0,67336;230,33374;0,00183
10,20000;0,68003;235,18431;0,00187
10,30000;0,68667;239,73403;0,00191
10,40000;0,69333;245,18932;0,00195
10,50000;0,70003;248,93377;0,00199
10,60000;0,70669;254,77135;0,00203
10,70000;0,71330;258,56905;0,00207
10,80000;0,71997;263,80187;0,00211
10,90000;0,72664;268,27327;0,00215
11,00000;0,73328;273,13321;0,00219
11,10000;0,74000;277,10639;0,00222
11,20000;0,74669;281,62166;0,00227
11,30000;0,75333;285,93326;0,00230
11,40000;0,76003;290,88720;0,00234
11,50000;0,76672;295,81920;0,00238
11,60000;0,77336;299,88014;0,00242
11,70000;0,77997;303,31123;0,00246
11,80000;0,78667;307,84844;0,00250
11,90000;0,79333;312,62690;0,00253
12,00000;0,79997;315,48773;0,00257
12,10000;0,80667;320,17219;0,00261
12,20000;0,81333;323,41529;0,00264
12,30000;0,81994;327,05006;0,00268
12,40000;0,82664;332,20768;0,00271
12,50000;0,83333;335,19070;0,00275
12,60000;0,84000;339,21716;0,00278
12,70000;0,84664;342,70154;0,00281
12,80000;0,85336;346,41777;0,00285
12,90000;0,86003;349,04045;0,00288
13,00000;0,86664;352,98856;0,00292
13,10000;0,87333;357,42864;0,00295
13,20000;0,88003;361,02580;0,00298
13,30000;0,88664;365,07419;0,00302
13,40000;0,89336;368,94397;0,00305
13,50000;0,90006;371,59484;0,00308
13,60000;0,90669;375,34556;0,00312
13,70000;0,91330;378,61371;0,00315
13,80000;0,91997;382,26417;0,00318
13,90000;0,92664;385,64827;0,00322
14,00000;0,93328;389,64024;0,00325
14,10000;0,94000;393,50688;0,00328
14,20000;0,94669;396,20162;0,00331
14,30000;0,95333;399,90847;0,00335
14,40000;0,96000;404,11977;0,00338
14,50000;0,96669;407,31588;0,00341
14,60000;0,97336;409,75683;0,00345
14,70000;0,97997;413,83966;0,00348
14,80000;0,98669;417,87555;0,00351
14,90000;0,99336;421,55418;0,00354
15,00000;0,99997;424,33664;0,00358
15,10000;1,00664;428,14692;0,00361
15,20000;1,01333;431,12678;0,00364
15,30000;1,01991;434,55474;0,00367
15,40000;1,02661;438,48092;0,00370
15,50000;1,03336;441,00336;0,00374
15,60000;1,04006;444,19942;0,00377
15,70000;1,04669;448,17263;0,00380
15,80000;1,05336;450,63552;0,00383
15,90000;1,06003;453,42739;0,00386
16,00000;1,06664;457,83613;0,00389
16,10000;1,07333;461,61502;0,00392
16,20000;1,08000;464,53848;0,00396
16,30000;1,08664;467,56226;0,00398
16,40000;1,09333;470,24135;0,00402
16,50000;1,10000;473,97953;0,00405
16,60000;1,10667;477,42315;0,00408
16,70000;1,11330;479,62596;0,00410
16,80000;1,11997;482,26742;0,00414
16,90000;1,12664;485,52621;0,00417
17,00000;1,13330;489,65919;0,00420
17,10000;1,14003;492,40408;0,00423
17,20000;1,14672;495,85081;0,00426
17,30000;1,15330;498,85265;0,00429
17,40000;1,16000;501,85760;0,00432
17,50000;1,16669;504,38317;0,00435
17,60000;1,17336;506,93373;0,00438
17,70000;1,18003;509,72565;0,00441
17,80000;1,18672;513,29774;0,00444
17,90000;1,19336;516,19615;0,00446
18,00000;1,19997;519,09769;0,00449
18,10000;1,20664;522,71369;0,00452
18,20000;1,21330;524,88516;0,00455
18,30000;1,21991;528,01543;0,00458
18,40000;1,22664;530,76972;0,00461
18,50000;1,23336;533,37044;0,00464
18,60000;1,24006;535,93046;0,00466
18,70000;1,24667;539,06702;0,00469
18,80000;1,25333;541,21967;0,00472
18,90000;1,26003;544,52545;0,00475
19,00000;1,26664;547,91267;0,00478
19,10000;1,27336;551,54432;0,00481
19,20000;1,28003;552,91993;0,00484
19,30000;1,28664;556,09094;0,00487
19,40000;1,29333;559,96384;0,00489
19,50000;1,30003;561,52116;0,00492
19,60000;1,30667;564,88961;0,00495
19,70000;1,31327;567,47780;0,00497
19,80000;1,32000;570,42320;0,00501
19,90000;1,32669;573,27463;0,00503
20,00000;1,33336;575,78138;0,00506
20,10000;1,34006;579,45689;0,00509
20,20000;1,34669;582,38977;0,00512
20,30000;1,35330;584,57064;0,00515
20,40000;1,35997;589,12979;0,00518
20,50000;1,36667;589,66870;0,00521
20,60000;1,37336;593,15623;0,00523
20,70000;1,38000;595,74759;0,00526
20,80000;1,38669;599,19748;0,00529
20,90000;1,39336;601,64779;0,00532
21,00000;1,39997;604,23603;0,00535
21,10000;1,40667;607,69846;0,00538
21,20000;1,41333;610,01405;0,00541
21,30000;1,41994;613,59871;0,00543
21,40000;1,42666;617,17080;0,00546
21,50000;1,43336;618,80960;0,00549
21,60000;1,44003;622,02136;0,00552
21,70000;1,44664;624,65654;0,00554
21,80000;1,45333;627,23537;0,00557
21,90000;1,46003;630,17453;0,00560
22,00000;1,46667;632,64053;0,00563
22,10000;1,47339;635,48256;0,00566
22,20000;1,48003;639,49334;0,00569
22,30000;1,48664;641,43916;0,00571
22,40000;1,49333;644,05873;0,00574
22,50000;1,50000;646,70332;0,00577
22,60000;1,50666;650,35066;0,00580
22,70000;1,51330;652,92944;0,00583
22,80000;1,52000;655,17612;0,00586
22,90000;1,52669;658,01186;0,00589
23,00000;1,53333;660,02039;0,00591
23,10000;1,54003;664,18783;0,00594
23,20000;1,54669;666,97346;0,00597
23,30000;1,55330;668,48691;0,00600
23,40000;1,55997;672,48205;0,00603
23,50000;1,56666;674,15526;0,00606
23,60000;1,57336;677,49550;0,00608
23,70000;1,57997;680,86707;0,00611
23,80000;1,58666;682,38992;0,00614
23,90000;1,59336;685,66436;0,00617
24,00000;1,59994;688,13660;0,00620
24,10000;1,60669;691,82469;0,00623
24,20000;1,61336;694,37525;0,00625
24,30000;1,61997;696,98854;0,00628
24,40000;1,62669;698,96886;0,00631
24,50000;1,63339;702,24018;0,00634
24,60000;1,64003;704,59023;0,00637
24,70000;1,64664;707,03430;0,00640
24,80000;1,65333;710,61268;0,00642
24,90000;1,66003;712,97213;0,00645
25,00000;1,66664;715,39427;0,00648
25,10000;1,67336;719,15439;0,00651
25,20000;1,68003;721,71753;0,00654
25,30000;1,68664;724,02060;0,00657
25,40000;1,69330;726,97857;0,00659
25,50000;1,70000;729,65766;0,00662
25,60000;1,70669;732,11114;0,00665
25,70000;1,71333;734,04443;0,00668
25,80000;1,72000;737,34708;0,00671
25,90000;1,72666;740,01988;0,00674
26,00000;1,73330;743,08123;0,00677
26,10000;1,74003;746,22408;0,00680
26,20000;1,74669;749,23527;0,00683
26,30000;1,75333;751,62607;0,00685
26,40000;1,76003;753,77873;0,00689
26,50000;1,76669;756,44529;0,00691
26,60000;1,77336;758,81104;0,00694
26,70000;1,77997;762,16380;0,00697
26,80000;1,78666;764,32587;0,00700
26,90000;1,79333;767,18670;0,00703
27,00000;1,79997;770,10705;0,00705
27,10000;1,80666;774,13977;0,00708
27,20000;1,81336;775,76600;0,00711
27,30000;1,81994;777,95312;0,00714
27,40000;1,82664;780,59775;0,00717
27,50000;1,83333;783,13267;0,00720
27,60000;1,84003;786,73298;0,00723
27,70000;1,84664;789,46846;0,00726
27,80000;1,85336;792,01590;0,00729
27,90000;1,86003;794,42868;0,00732
28,00000;1,86664;797,81590;0,00735
28,10000;1,87336;801,51334;0,00738
28,20000;1,88003;803,86652;0,00740
28,30000;1,88664;805,65568;0,00743
28,40000;1,89336;808,57296;0,00746
28,50000;1,90008;811,72204;0,00749
28,60000;1,90669;814,71130;0,00752
28,70000;1,91330;816,82326;0,00755
28,80000;1,91997;820,04443;0,00758
28,90000;1,92664;822,75793;0,00761
29,00000;1,93325;825,51539;0,00764
29,10000;1,94000;829,90844;0,00767
29,20000;1,94669;832,14883;0,00770
29,30000;1,95330;833,94740;0,00772
29,40000;1,95997;835,70210;0,00775
29,50000;1,96669;839,41529;0,00778
29,60000;1,97336;841,60548;0,00781
29,70000;1,97997;845,09300;0,00784
29,80000;1,98669;848,22644;0,00787
29,90000;1,99339;850,88983;0,00790
30,00000;2,00003;852,66028;0,00793
30,10000;2,00669;856,22296;0,00796
30,20000;2,01333;859,63840;0,00799
30,30000;2,01994;861,31161;0,00802
30,40000;2,02664;863,35465;0,00805
30,50000;2,03339;866,74495;0,00808
30,60000;2,04005;869,78441;0,00811
30,70000;2,04666;871,54536;0,00813
30,80000;2,05333;874,77593;0,00817
30,90000;2,06000;877,22633;0,00819
31,00000;2,06661;880,63860;0,00822
31,10000;2,07330;883,59341;0,00825
31,20000;2,08000;886,87101;0,00829
31,30000;2,08664;888,52858;0,00831
31,40000;2,09336;891,27971;0,00835
31,50000;2,10003;894,77664;0,00838
31,60000;2,10669;896,31202;0,00840
31,70000;2,11330;899,66478;0,00843
31,80000;2,11997;901,70465;0,00846
31,90000;2,12666;904,52153;0,00849
32,00000;2,13330;907,26642;0,00852
32,10000;2,14003;911,13001;0,00855
32,20000;2,14669;913,67429;0,00858
32,30000;2,15327;915,82071;0,00861
32,40000;2,15997;918,70343;0,00864
32,50000;2,16666;921,32296;0,00867
32,60000;2,17333;924,18073;0,00870
32,70000;2,18003;926,61846;0,00873
32,80000;2,18672;929,88666;0,00876
32,90000;2,19339;931,92337;0,00879
33,00000;2,20000;935,31683;0,00882
33,10000;2,20666;938,14945;0,00885
33,20000;2,21333;940,38676;0,00888
33,30000;2,21994;943,18492;0,00891
33,40000;2,22664;946,46243;0,00894
33,50000;2,23336;948,59637;0,00897
33,60000;2,24003;951,32552;0,00901
33,70000;2,24664;953,67562;0,00903
33,80000;2,25333;956,84035;0,00906
33,90000;2,26000;958,96488;0,00910
34,00000;2,26661;962,92859;0,00913
34,10000;2,27333;966,07460;0,00915
34,20000;2,28003;968,40896;0,00919
34,30000;2,28666;969,97572;0,00922
34,40000;2,29333;972,89607;0,00925
34,50000;2,30000;975,69730;0,00928
34,60000;2,30666;978,37327;0,00930
34,70000;2,31330;981,32184;0,00933
34,80000;2,32000;984,10435;0,00937
34,90000;2,32672;987,18135;0,00940
35,00000;2,33330;990,11110;0,00943
35,10000;2,34003;993,11918;0,00946
35,20000;2,34669;995,12143;0,00949
35,30000;2,35327;998,03861;0,00952
35,40000;2,35994;1001,34443;0,00955
35,50000;2,36666;1004,52797;0,00958
35,60000;2,37336;1006,55528;0,00961
35,70000;2,38003;1009,65425;0,00964
35,80000;2,38669;1012,55272;0,00968
35,90000;2,39339;1015,00303;0,00971
36,00000;2,39997;1017,91713;0,00974
36,10000;2,40666;1020,83432;0,00977
36,20000;2,41333;1023,31284;0,00980
36,30000;2,41994;1025,67859;0,00983
36,40000;2,42664;1028,47358;0,00986
36,50000;2,43333;1031,56315;0,00989
36,60000;2,44000;1034,82511;0,00992
36,70000;2,44664;1036,72389;0,00995
36,80000;2,45333;1040,25220;0,00998
36,90000;2,46000;1042,91560;0,01002
37,00000;2,46666;1045,70119;0,01005
37,10000;2,47339;1048,76254;0,01008
37,20000;2,48005;1050,53922;0,01011
37,30000;2,48666;1054,03922;0,01014
37,40000;2,49333;1056,17624;0,01017
37,50000;2,50003;1059,19372;0,01020
37,60000;2,50666;1062,27072;0,01023
37,70000;2,51330;1064,55497;0,01026
37,80000;2,52000;1067,32808;0,01029
37,90000;2,52666;1069,40242;0,01032
38,00000;2,53330;1072,43555;0,01036
38,10000;2,54000;1075,61601;0,01039
38,20000;2,54666;1077,77491;0,01042
38,30000;2,55327;1080,59188;0,01045
38,40000;2,55997;1082,28391;0,01048
38,50000;2,56669;1085,70568;0,01052
38,60000;2,57336;1089,47204;0,01055
38,70000;2,58000;1091,42102;0,01058
38,80000;2,58669;1095,14976;0,01061
38,90000;2,59336;1096,83871;0,01064
39,00000;2,60000;1099,79035;0,01067
39,10000;2,60669;1103,46591;0,01070
39,20000;2,61339;1105,03891;0,01073
39,30000;2,61997;1107,92164;0,01077
39,40000;2,62664;1110,68534;0,01080
39,50000;2,63336;1113,53043;0,01083
39,60000;2,64003;1115,90242;0,01086
39,70000;2,64663;1119,02962;0,01089
39,80000;2,65333;1122,03145;0,01093
39,90000;2,66003;1123,32245;0,01096
40,00000;2,66666;1126,89454;0,01099
40,10000;2,67336;1129,40436;0,01102
40,20000;2,68003;1132,45323;0,01106
40,30000;2,68666;1134,83462;0,01109
40,40000;2,69333;1137,56694;0,01112
40,50000;2,70003;1140,57818;0,01115
40,60000;2,70669;1143,16950;0,01118
40,70000;2,71330;1145,50078;0,01122
40,80000;2,71997;1148,02318;0,01125
40,90000;2,72666;1150,75866;0,01128
41,00000;2,73330;1154,52195;0,01131
41,10000;2,74000;1156,55549;0,01134
41,20000;2,74669;1159,02470;0,01137
41,30000;2,75333;1162,55600;0,01141
41,40000;2,76003;1164,64607;0,01144
41,50000;2,76672;1168,29025;0,01147
41,60000;2,77336;1170,45231;0,01151
41,70000;2,77997;1172,92451;0,01154
41,80000;2,78666;1176,07359;0,01157
41,90000;2,79333;1178,82164;0,01160
42,00000;2,79997;1180,17215;0,01164
42,10000;2,80666;1183,09567;0,01167
42,20000;2,81333;1186,48596;0,01170
42,30000;2,81994;1188,62297;0,01173
42,40000;2,82663;1191,04823;0,01176
42,50000;2,83333;1194,29138;0,01179
42,60000;2,84003;1196,54741;0,01183
42,70000;2,84666;1199,39884;0,01186
42,80000;2,85336;1202,37246;0,01189
42,90000;2,86003;1204,35283;0,01192
43,00000;2,86666;1208,00640;0,01196
43,10000;2,87336;1210,36582;0,01199
43,20000;2,88003;1212,55293;0,01202
43,30000;2,88666;1215,34802;0,01205
43,40000;2,89336;1218,20876;0,01209
43,50000;2,90005;1220,95998;0,01212
43,60000;2,90669;1224,03074;0,01215
43,70000;2,91330;1226,04240;0,01218
43,80000;2,91997;1229,62389;0,01222
43,90000;2,92663;1231,88309;0,01225
44,00000;2,93324;1233,67850;0,01228
44,10000;2,94000;1237,28821;0,01231
44,20000;2,94669;1239,76050;0,01235
44,30000;2,95330;1242,49598;0,01238
44,40000;2,96000;1244,87113;0,01241
44,50000;2,96669;1247,92932;0,01245
44,60000;2,97336;1250,43606;0,01248
44,70000;2,97997;1253,69169;0,01251
44,80000;2,98669;1256,74056;0,01255
44,90000;2,99339;1258,41694;0,01258
45,00000;2,99997;1261,80733;0,01261
45,10000;3,00663;1264,56162;0,01264
45,20000;3,01333;1267,16858;0,01268
45,30000;3,01991;1269,48422;0,01271
45,40000;3,02661;1271,29843;0,01274
45,50000;3,03336;1274,63238;0,01278
45,60000;3,04005;1277,80344;0,01281
45,70000;3,04669;1280,72696;0,01284
45,80000;3,05336;1282,61633;0,01287
45,90000;3,06003;1285,00089;0,01291
46,00000;3,06666;1287,85549;0,01294
46,10000;3,07333;1290,85416;0,01297
46,20000;3,08002;1293,75886;0,01301
46,30000;3,08663;1296,45672;0,01304
46,40000;3,09333;1298,70335;0,01307
46,50000;3,10002;1301,92144;0,01311
46,60000;3,10669;1304,44691;0,01314
46,70000;3,11330;1306,32697;0,01317
46,80000;3,11997;1309,93044;0,01320
46,90000;3,12666;1312,34629;0,01324
47,00000;3,13330;1314,09476;0,01327
47,10000;3,14003;1317,50079;0,01330
47,20000;3,14669;1319,84456;0,01334
47,30000;3,15330;1322,55191;0,01337
47,40000;3,15997;1324,24077;0,01341
47,50000;3,16666;1328,16387;0,01344
47,60000;3,17336;1330,02196;0,01348
47,70000;3,18000;1332,96112;0,01351
47,80000;3,18669;1334,98842;0,01354
47,90000;3,19339;1336,79016;0,01358
48,00000;3,19997;1341,00774;0,01361
48,10000;3,20666;1343,42993;0,01365
48,20000;3,21333;1345,78627;0,01368
48,30000;3,21991;1348,46848;0,01371
48,40000;3,22663;1350,65559;0,01375
48,50000;3,23336;1354,64128;0,01378
48,60000;3,24005;1356,26439;0,01382
48,70000;3,24666;1358,84322;0,01385
48,80000;3,25333;1361,61633;0,01388
48,90000;3,26000;1364,82492;0,01392
49,00000;3,26663;1366,52011;0,01395
49,10000;3,27333;1369,42165;0,01398
49,20000;3,28002;1372,32635;0,01402
49,30000;3,28663;1374,55110;0,01405
49,40000;3,29330;1377,77850;0,01409
49,50000;3,30000;1380,50457;0,01412
49,60000;3,30666;1383,42185;0,01416
49,70000;3,31330;1384,93208;0,01419
49,80000;3,32000;1387,91203;0,01422
49,90000;3,32672;1390,06469;0,01426
50,00000;3,33336;1393,18239;0,01429
50,10000;3,34005;1395,75182;0,01433
50,20000;3,34672;1397,95151;0,01436
50,30000;3,35330;1401,07553;0,01440
50,40000;3,36000;1403,36296;0,01443
50,50000;3,36669;1405,59077;0,01447
50,60000;3,37336;1408,63964;0,01450
50,70000;3,37997;1411,31245;0,01453
50,80000;3,38666;1414,70907;0,01457
50,90000;3,39336;1416,64864;0,01460
51,00000;3,39997;1419,80397;0,01464
51,10000;3,40663;1422,02564;0,01467
51,20000;3,41333;1424,76112;0,01471
51,30000;3,41997;1426,65058;0,01474
51,40000;3,42666;1429,31705;0,01478
51,50000;3,43336;1433,33105;0,01481
51,60000;3,44002;1434,08300;0,01485
51,70000;3,44663;1437,00652;0,01488
51,80000;3,45333;1440,93586;0,01491
51,90000;3,46000;1442,34588;0,01495
52,00000;3,46666;1445,86787;0,01499
52,10000;3,47339;1448,06439;0,01502
52,20000;3,48002;1449,54650;0,01506
52,30000;3,48663;1453,63873;0,01509
52,40000;3,49330;1455,71930;0,01513
52,50000;3,49997;1458,30438;0,01516
52,60000;3,50663;1461,44414;0,01520
52,70000;3,51327;1463,35866;0,01523
52,80000;3,51997;1466,38863;0,01527
52,90000;3,52666;1468,54129;0,01530
53,00000;3,53333;1471,98178;0,01534
53,10000;3,54002;1473,95274;0,01537
53,20000;3,54669;1475,29067;0,01541
53,30000;3,55330;1478,98188;0,01544
53,40000;3,56000;1481,43535;0,01548
53,50000;3,56669;1483,71654;0,01551
53,60000;3,57336;1486,42687;0,01555
53,70000;3,57997;1488,52943;0,01558
53,80000;3,58669;1492,56531;0,01562
53,90000;3,59336;1494,09752;0,01566
54,00000;3,59994;1496,19691;0,01569
54,10000;3,60669;1499,30213;0,01573
54,20000;3,61339;1501,86839;0,01576
54,30000;3,61997;1504,43781;0,01580
54,40000;3,62666;1507,37390;0,01583
54,50000;3,63336;1509,51082;0,01587
54,60000;3,64002;1511,39088;0,01590
54,70000;3,64663;1514,24231;0,01594
54,80000;3,65333;1517,33505;0,01598
54,90000;3,66002;1519,50959;0,01601
55,00000;3,66663;1522,04772;0,01605
55,10000;3,67333;1524,44476;0,01608
55,20000;3,68002;1527,15826;0,01612
55,30000;3,68663;1529,88127;0,01616
55,40000;3,69330;1531,66726;0,01619
55,50000;3,70000;1534,25550;0,01623
55,60000;3,70669;1537,19783;0,01626
55,70000;3,71333;1539,69824;0,01630
55,80000;3,72000;1542,42748;0,01633
55,90000;3,72666;1544,63341;0,01637
56,00000;3,73330;1547,00540;0,01641
56,10000;3,74000;1549,47769;0,01644
56,20000;3,74669;1552,30407;0,01648
56,30000;3,75333;1555,07717;0,01652
56,40000;3,76000;1557,07942;0,01655
56,50000;3,76669;1559,79609;0,01659
56,60000;3,77336;1562,17432;0,01663
56,70000;3,77997;1564,27994;0,01666
56,80000;3,78666;1567,31941;0,01670
56,90000;3,79336;1569,63803;0,01673
57,00000;3,80000;1572,72145;0,01677
57,10000;3,80669;1575,14662;0,01681
57,20000;3,81336;1577,38086;0,01684
57,30000;3,81997;1579,41747;0,01688
57,40000;3,82663;1581,92422;0,01691
57,50000;3,83336;1585,40551;0,01695
57,60000;3,84002;1587,09753;0,01699
57,70000;3,84666;1590,11185;0,01702
57,80000;3,85336;1591,53454;0,01706
57,90000;3,86000;1594,95622;0,01710
58,00000;3,86661;1596,49160;0,01713
58,10000;3,87330;1599,63127;0,01717
58,20000;3,88002;1602,35111;0,01721
58,30000;3,88663;1604,75448;0,01725
58,40000;3,89336;1606,99170;0,01728
58,50000;3,90005;1609,30417;0,01732
58,60000;3,90669;1610,98372;0,01736
58,70000;3,91330;1614,05448;0,01739
58,80000;3,91997;1616,91532;0,01743
58,90000;3,92666;1619,04916;0,01747
59,00000;3,93327;1621,45551;0,01751
59,10000;3,94000;1624,09712;0,01754
59,20000;3,94669;1625,80479;0,01758
59,30000;3,95330;1629,48035;0,01762
59,40000;3,95997;1631,27892;0,01765
59,50000;3,96669;1635,01706;0,01769
59,60000;3,97336;1636,65898;0,01773
59,70000;3,97997;1638,43557;0,01776
59,80000;3,98666;1641,31206;0,01780
59,90000;3,99336;1644,03506;0,01784
60,00000;4,00000;1646,38832;0,01788
60,10000;4,00669;1648,23700;0,01791
60,20000;4,01336;1650,90673;0,01795
60,30000;4,01994;1653,77054;0,01799
60,40000;4,02663;1655,53149;0,01803
60,50000;4,03339;1658,28895;0,01806
60,60000;4,04005;1660,63905;0,01810
60,70000;4,04669;1663,69416;0,01814
60,80000;4,05336;1665,06656;0,01818
60,90000;4,06002;1667,77391;0,01822
61,00000;4,06663;1670,28382;0,01826
61,10000;4,07333;1673,12268;0,01829
61,20000;4,08002;1675,25653;0,01833
61,30000;4,08663;1677,38404;0,01837
61,40000;4,09336;1680,32013;0,01841
61,50000;4,10005;1682,53537;0,01844
61,60000;4,10669;1684,33096;0,01848
61,70000;4,11330;1686,49293;0,01852
61,80000;4,11997;1688,56103;0,01856
61,90000;4,12666;1691,66308;0,01859
62,00000;4,13330;1693,19529;0,01863
62,10000;4,14002;1696,84887;0,01867
62,20000;4,14669;1697,78578;0,01871
62,30000;4,15330;1700,90664;0,01875
62,40000;4,15997;1702,80244;0,01878
62,50000;4,16669;1706,19600;0,01882
62,60000;4,17336;1708,15121;0,01886
62,70000;4,18002;1710,34150;0,01890
62,80000;4,18675;1711,77033;0,01894
62,90000;4,19339;1714,63117;0,01897
63,00000;4,20000;1716,79314;0,01901
63,10000;4,20666;1718,96778;0,01905
63,20000;4,21333;1721,61870;0,01909
63,30000;4,21994;1723,62719;0,01912
63,40000;4,22663;1725,92085;0,01916
63,50000;4,23336;1729,11063;0,01920
63,60000;4,24002;1730,71194;0,01924
63,70000;4,24663;1732,46972;0,01928
63,80000;4,25333;1735,45275;0,01932
63,90000;4,26000;1737,92820;0,01935
64,00000;4,26660;1739,37883;0,01939
64,10000;4,27336;1742,38067;0,01943
64,20000;4,28005;1743,94436;0,01947
64,30000;4,28669;1747,07770;0,01951
64,40000;4,29336;1748,63823;0,01955
64,50000;4,30002;1751,07904;0,01958
64,60000;4,30669;1752,73363;0,01962
64,70000;4,31330;1755,68517;0,01966
64,80000;4,31999;1757,14865;0,01970
64,90000;4,32672;1759,76809;0,01974
65,00000;4,33330;1762,11186;0,01978
65,10000;4,33999;1764,43383;0,01982
65,20000;4,34669;1766,62095;0,01985
65,30000;4,35327;1769,71368;0,01989
65,40000;4,35997;1770,66922;0,01993
65,50000;4,36669;1773,38589;0,01997
65,60000;4,37336;1775,58567;0,02001
65,70000;4,38002;1777,74448;0,02005
65,80000;4,38669;1780,27321;0,02009
65,90000;4,39339;1782,25040;0,02013
66,00000;4,39999;1784,10541;0,02017
66,10000;4,40666;1787,30153;0,02021
66,20000;4,41333;1789,24426;0,02024
66,30000;4,41994;1791,06165;0,02028
66,40000;4,42663;1792,69109;0,02032
66,50000;4,43333;1796,27258;0,02036
66,60000;4,44002;1798,29039;0,02040
66,70000;4,44663;1799,86972;0,02044
66,80000;4,45333;1802,02555;0,02048
66,90000;4,45999;1804,40061;0,02052
67,00000;4,46666;1806,13026;0,02056
67,10000;4,47339;1809,20418;0,02060
67,20000;4,48005;1811,65766;0,02064
67,30000;4,48666;1812,91103;0,02068
67,40000;4,49333;1816,04438;0,02072
67,50000;4,50002;1818,22535;0,02076
67,60000;4,50666;1819,69181;0,02080
67,70000;4,51330;1821,49652;0,02084
67,80000;4,51997;1823,69314;0,02088
67,90000;4,52666;1826,92371;0,02092
68,00000;4,53330;1828,41215;0,02096
68,10000;4,54002;1830,56165;0,02100
68,20000;4,54669;1832,69866;0,02104
68,30000;4,55327;1835,31493;0,02108
68,40000;4,55999;1837,02279;0,02112
68,50000;4,56669;1840,31595;0,02116
68,60000;4,57336;1841,53486;0,02120
68,70000;4,57999;1844,14815;0,02124
68,80000;4,58669;1846,25071;0,02128
68,90000;4,59336;1848,76360;0,02132
69,00000;4,59999;1850,44315;0,02136
69,10000;4,60669;1852,97187;0,02140
69,20000;4,61336;1854,80174;0,02144
69,30000;4,61997;1856,58783;0,02148
69,40000;4,62663;1858,64344;0,02152
69,50000;4,63333;1861,31299;0,02156
69,60000;4,64002;1863,78211;0,02160
69,70000;4,64663;1864,84754;0,02164
69,80000;4,65333;1867,98088;0,02168
69,90000;4,66002;1869,48497;0,02173
70,00000;4,66669;1871,88834;0,02177
70,10000;4,67338;1874,28221;0,02181
70,20000;4,68005;1876,17484;0,02185
70,30000;4,68666;1878,86655;0,02189
70,40000;4,69333;1880,46452;0,02193
70,50000;4,70002;1883,35348;0,02197
70,60000;4,70669;1884,61002;0,02201
70,70000;4,71330;1886,31769;0,02205
70,80000;4,71997;1888,22597;0,02209
70,90000;4,72666;1890,51963;0,02214
71,00000;4,73330;1892,65665;0,02218
71,10000;4,73999;1895,44223;0,02222
71,20000;4,74669;1897,46972;0,02226
71,30000;4,75333;1899,27444;0,02230
71,40000;4,76002;1901,23599;0,02234
71,50000;4,76672;1903,70511;0,02239
71,60000;4,77336;1905,14345;0,02243
71,70000;4,77997;1907,36186;0,02247
71,80000;4,78666;1909,72444;0,02251
71,90000;4,79333;1912,17158;0,02255
72,00000;4,79994;1913,39683;0,02259
72,10000;4,80666;1916,00379;0,02264
72,20000;4,81333;1918,28813;0,02268
72,30000;4,81994;1920,01145;0,02272
72,40000;4,82663;1921,68467;0,02276
72,50000;4,83333;1924,40450;0,02280
72,60000;4,83999;1926,13732;0,02284
72,70000;4,84663;1928,53436;0,02289
72,80000;4,85336;1929,96636;0,02293
72,90000;4,86002;1932,16614;0,02297
73,00000;4,86666;1934,11820;0,02301
73,10000;4,87333;1936,13302;0,02306
73,20000;4,88002;1938,78394;0,02310
73,30000;4,88666;1940,24090;0,02314
73,40000;4,89336;1941,92361;0,02318
73,50000;4,90005;1943,92577;0,02322
73,60000;4,90669;1946,15368;0,02327
73,70000;4,91330;1947,06861;0,02331
73,80000;4,91997;1949,31850;0,02335
73,90000;4,92666;1952,17617;0,02339
74,00000;4,93327;1953,65194;0,02344
74,10000;4,93999;1955,31268;0,02348
74,20000;4,94669;1958,25491;0,02352
74,30000;4,95333;1959,70573;0,02356
74,40000;4,95999;1961,52311;0,02361
74,50000;4,96672;1963,47516;0,02365
74,60000;4,97336;1965,32402;0,02370
74,70000;4,97997;1967,09130;0,02374
74,80000;4,98669;1969,47884;0,02378
74,90000;4,99338;1970,96728;0,02382
75,00000;4,99997;1972,47453;0,02387
75,10000;5,00666;1975,33835;0,02391
75,20000;5,01333;1977,68845;0,02395
75,30000;5,01994;1978,68180;0,02399
75,40000;5,02660;1980,59008;0,02403
75,50000;5,03336;1982,39479;0,02408
75,60000;5,04005;1983,76421;0,02412
75,70000;5,04669;1986,63753;0,02417
75,80000;5,05336;1987,52433;0,02421
75,90000;5,06002;1989,57976;0,02425
76,00000;5,06663;1991,34704;0,02430
76,10000;5,07336;1993,29611;0,02434
76,20000;5,08002;1994,95051;0,02438
76,30000;5,08666;1996,95583;0,02443
76,40000;5,09336;1999,34673;0,02447
76,50000;5,10002;2001,26115;0,02451
76,60000;5,10669;2002,79355;0,02456
76,70000;5,11330;2004,01545;0,02460
76,80000;5,11997;2005,77956;0,02464
76,90000;5,12666;2008,29897;0,02469
77,00000;5,13330;2009,98466;0,02473
77,10000;5,14005;2011,77392;0,02478
77,20000;5,14669;2014,06442;0,02482
77,30000;5,15330;2015,48692;0,02486
77,40000;5,15997;2017,53005;0,02491
77,50000;5,16669;2019,26269;0,02495
77,60000;5,17336;2020,87332;0,02500
77,70000;5,18002;2022,72516;0,02504
77,80000;5,18672;2024,99684;0,02509
77,90000;5,19338;2026,68272;0,02513
78,00000;5,19997;2028,69121;0,02518
78,10000;5,20666;2030,08875;0,02522
78,20000;5,21333;2032,05030;0,02526
78,30000;5,21991;2033,31932;0,02531
78,40000;5,22663;2034,15286;0,02535
78,50000;5,23336;2036,94161;0,02540
78,60000;5,24002;2038,73701;0,02544
78,70000;5,24666;2040,13139;0,02549
78,80000;5,25336;2042,26524;0,02553
78,90000;5,26002;2043,83824;0,02558
79,00000;5,26663;2045,24510;0,02562
79,10000;5,27336;2047,31002;0,02567
79,20000;5,28002;2049,98907;0,02572
79,30000;5,28663;2051,12658;0,02576
79,40000;5,29333;2052,90001;0,02581
79,50000;5,29999;2054,71441;0,02585
79,60000;5,30666;2056,38129;0,02590
79,70000;5,31330;2057,99509;0,02594
79,80000;5,31999;2059,22332;0,02599
79,90000;5,32672;2061,63600;0,02603
80,00000;5,33336;2062,63885;0,02608
80,10000;5,34005;2064,71309;0,02612
80,20000;5,34672;2065,77536;0,02617
80,30000;5,35330;2067,96564;0,02621
80,40000;5,35997;2069,07801;0,02626
80,50000;5,36666;2070,62904;0,02631
80,60000;5,37336;2072,95716;0,02635
80,70000;5,37999;2074,01309;0,02640
80,80000;5,38666;2076,05921;0,02644
80,90000;5,39336;2077,42546;0,02649
81,00000;5,39997;2079,61258;0,02654
81,10000;5,40666;2081,03191;0,02658
81,20000;5,41333;2082,63006;0,02663
81,30000;5,41994;2084,66053;0,02667
81,40000;5,42666;2085,44377;0,02672
81,50000;5,43336;2087,23620;0,02677
81,60000;5,44002;2088,79653;0,02681
81,70000;5,44666;2090,38518;0,02686
81,80000;5,45333;2091,73579;0,02690
81,90000;5,46002;2093,53436;0,02695
82,00000;5,46666;2094,81269;0,02700
82,10000;5,47338;2096,88395;0,02704
82,20000;5,48002;2099,18395;0,02709
82,30000;5,48663;2100,31513;0,02714
82,40000;5,49333;2101,59663;0,02719
82,50000;5,49999;2103,07874;0,02723
82,60000;5,50663;2104,76760;0,02728
82,70000;5,51330;2105,31596;0,02733
82,80000;5,51999;2108,22076;0,02737
82,90000;5,52669;2108,76595;0,02742
83,00000;5,53333;2109,77793;0,02747
83,10000;5,54005;2112,88016;0,02752
83,20000;5,54669;2113,31882;0,02756
83,30000;5,55330;2115,28353;0,02761
83,40000;5,55999;2117,04131;0,02766
83,50000;5,56669;2118,18814;0,02770
83,60000;5,57336;2119,68590;0,02775
83,70000;5,57997;2120,99887;0,02780
83,80000;5,58669;2122,26789;0,02785
83,90000;5,59336;2124,59918;0,02790
84,00000;5,59994;2125,56422;0,02794
84,10000;5,60669;2127,23128;0,02799
84,20000;5,61338;2128,70389;0,02804
84,30000;5,61999;2129,70655;0,02809
84,40000;5,62666;2131,36729;0,02814
84,50000;5,63336;2132,94663;0,02818
84,60000;5,64002;2134,07148;0,02823
84,70000;5,64663;2135,26525;0,02828
84,80000;5,65333;2137,32086;0,02833
84,90000;5,66002;2138,54592;0,02837
85,00000;5,66663;2140,10961;0,02842
85,10000;5,67336;2141,30338;0,02847
85,20000;5,68002;2142,78866;0,02852
85,30000;5,68663;2144,97261;0,02857
85,40000;5,69333;2145,61503;0,02862
85,50000;5,69999;2146,90287;0,02867
85,60000;5,70669;2148,79233;0,02872
85,70000;5,71330;2149,86075;0,02877
85,80000;5,71999;2151,00758;0,02881
85,90000;5,72666;2152,74990;0,02886
86,00000;5,73330;2153,99694;0,02891
86,10000;5,74002;2156,14960;0,02896
86,20000;5,74669;2156,79817;0,02901
86,30000;5,75333;2158,02025;0,02906
86,40000;5,75999;2158,75339;0,02911
86,50000;5,76669;2160,30143;0,02916
86,60000;5,77336;2162,94285;0,02921
86,70000;5,77996;2162,85829;0,02926
86,80000;5,78666;2164,38118;0,02931
86,90000;5,79336;2166,33640;0,02936
87,00000;5,79999;2166,72495;0,02941
87,10000;5,80672;2168,22270;0,02946
87,20000;5,81336;2170,26565;0,02951
87,30000;5,81997;2170,52568;0,02956
87,40000;5,82666;2171,97333;0,02961
87,50000;5,83336;2174,39234;0,02966
87,60000;5,84002;2174,68999;0,02971
87,70000;5,84666;2175,90891;0,02976
87,80000;5,85336;2177,11534;0,02981
87,90000;5,85999;2178,51289;0,02986
88,00000;5,86660;2179,81953;0,02991
88,10000;5,87333;2180,93190;0,02996
88,20000;5,88002;2182,84950;0,03001
88,30000;5,88663;2183,29132;0,03006
88,40000;5,89336;2185,38139;0,03012
88,50000;5,90005;2185,24970;0,03017
88,60000;5,90672;2187,41801;0,03022
88,70000;5,91333;2188,06360;0,03027
88,80000;5,91999;2189,19162;0,03032
88,90000;5,92666;2190,88048;0,03037
89,00000;5,93330;2191,25021;0,03042
89,10000;5,93999;2193,42802;0,03047
89,20000;5,94669;2194,37424;0,03052
89,30000;5,95330;2195,33611;0,03057
89,40000;5,95996;2196,62096;0,03063
89,50000;5,96669;2197,69888;0,03068
89,60000;5,97335;2198,53856;0,03073
89,70000;5,97996;2200,06462;0,03078
89,80000;5,98669;2201,00451;0,03083
89,90000;5,99338;2201,85053;0,03089
90,00000;6,00002;2203,11657;0,03094
90,10000;6,00669;2204,77097;0,03099
90,20000;6,01335;2205,69223;0,03104
90,30000;6,01996;2207,45951;0,03109
90,40000;6,02663;2207,43120;0,03115
90,50000;6,03335;2208,74734;0,03120
90,60000;6,04005;2210,09459;0,03125
90,70000;6,04666;2211,05032;0,03130
90,80000;6,05333;2212,11892;0,03135
90,90000;6,05999;2213,74501;0,03141
91,00000;6,06663;2213,56656;0,03146
91,10000;6,07333;2215,08928;0,03152
91,20000;6,08002;2216,44603;0,03157
91,30000;6,08666;2217,69009;0,03162
91,40000;6,09335;2218,76483;0,03168
91,50000;6,10002;2219,51995;0,03173
91,60000;6,10669;2220,83293;0,03178
91,70000;6,11330;2221,29971;0,03183
91,80000;6,11999;2222,72240;0,03189
91,90000;6,12666;2224,11677;0,03194
92,00000;6,13330;2224,94397;0,03200
92,10000;6,14002;2225,73355;0,03205
92,20000;6,14669;2226,66413;0,03210
92,30000;6,15330;2227,77352;0,03216
92,40000;6,15996;2228,85124;0,03221
92,50000;6,16666;2229,61269;0,03227
92,60000;6,17335;2230,99459;0,03232
92,70000;6,18002;2232,02854;0,03237
92,80000;6,18672;2232,12261;0,03243
92,90000;6,19338;2233,72076;0,03248
93,00000;6,19999;2234,82996;0,03254
93,10000;6,20666;2235,72925;0,03259
93,20000;6,21333;2236,15840;0,03265
93,30000;6,21994;2237,44009;0,03270
93,40000;6,22663;2238,11064;0,03276
93,50000;6,23335;2239,44541;0,03281
93,60000;6,24002;2240,44807;0,03287
93,70000;6,24663;2240,17557;0,03292
93,80000;6,25333;2242,11831;0,03297
93,90000;6,26002;2243,08334;0,03303
94,00000;6,26660;2243,31524;0,03308
94,10000;6,27335;2244,75656;0,03314
94,20000;6,28002;2244,85062;0,03320
94,30000;6,28666;2246,11014;0,03325
94,40000;6,29333;2247,33539;0,03331
94,50000;6,30002;2248,43211;0,03337
94,60000;6,30669;2249,29377;0,03342
94,70000;6,31330;2249,47874;0,03348
94,80000;6,31999;2250,41565;0,03353
94,90000;6,32672;2251,50920;0,03359
95,00000;6,33333;2252,16392;0,03364
95,10000;6,34002;2253,82168;0,03370
95,20000;6,34669;2254,22885;0,03376
95,30000;6,35330;2255,20022;0,03381
95,40000;6,35996;2254,75840;0,03387
95,50000;6,36669;2255,97117;0,03392
95,60000;6,37335;2256,61043;0,03398
95,70000;6,38002;2257,95154;0,03404
95,80000;6,38669;2257,08038;0,03410
95,90000;6,39338;2260,23570;0,03415
96,00000;6,39999;2259,40850;0,03421
96,10000;6,40666;2261,11300;0,03427
96,20000;6,41333;2261,67403;0,03433
96,30000;6,41994;2262,05941;0,03438
96,40000;6,42663;2262,72047;0,03444
96,50000;6,43333;2264,34059;0,03450
96,60000;6,43999;2265,11136;0,03455
96,70000;6,44663;2265,32128;0,03461
96,80000;6,45333;2265,97618;0,03467
96,90000;6,45999;2267,45829;0,03473
97,00000;6,46666;2267,93140;0,03479
97,10000;6,47338;2268,33560;0,03484
97,20000;6,48005;2267,57415;0,03490
97,30000;6,48666;2268,98417;0,03496
97,40000;6,49333;2269,46995;0,03502
97,50000;6,49999;2270,65124;0,03507
97,60000;6,50666;2271,78242;0,03513
97,70000;6,51327;2271,87332;0,03519
97,80000;6,51999;2272,47495;0,03525
97,90000;6,52666;2273,91943;0,03531
98,00000;6,53330;2274,30798;0,03537
98,10000;6,54002;2275,11004;0,03543
98,20000;6,54669;2275,35442;0,03548
98,30000;6,55330;2276,62977;0,03554
98,40000;6,55999;2276,27568;0,03560
98,50000;6,56669;2277,64193;0,03566
98,60000;6,57335;2278,08375;0,03572
98,70000;6,57999;2277,92077;0,03578
98,80000;6,58669;2278,65707;0,03584
98,90000;6,59338;2279,18662;0,03590
99,00000;6,59996;2279,81955;0,03596
99,10000;6,60669;2280,32414;0,03602
99,20000;6,61338;2281,32363;0,03607
99,30000;6,61996;2281,61197;0,03613
99,40000;6,62663;2281,31115;0,03620
99,50000;6,63335;2283,39173;0,03626
99,60000;6,64002;2283,43867;0,03632
99,70000;6,64663;2283,64859;0,03637
99,80000;6,65333;2284,83621;0,03644
99,90000;6,66002;2284,61064;0,03650
100,00000;6,66669;2285,95808;0,03656
100,10000;6,67338;2286,93243;0,03662
100,20000;6,68002;2286,15534;0,03667
100,30000;6,68666;2287,23641;0,03673
100,40000;6,69333;2287,29602;0,03680
100,50000;6,69999;2287,51842;0,03686
100,60000;6,70669;2288,22660;0,03692
100,70000;6,71330;2289,36411;0,03698
100,80000;6,71996;2288,77813;0,03704
100,90000;6,72666;2290,40440;0,03710
101,00000;6,73330;2290,56422;0,03716
101,10000;6,73999;2290,52976;0,03722
101,20000;6,74669;2290,45767;0,03728
101,30000;6,75333;2291,22210;0,03734
101,40000;6,76002;2291,80809;0,03740
101,50000;6,76672;2292,25624;0,03747
101,60000;6,77338;2292,32199;0,03753
101,70000;6,77999;2293,45001;0,03759
101,80000;6,78666;2293,71637;0,03765
101,90000;6,79333;2293,71954;0,03771
102,00000;6,79996;2294,22078;0,03777
102,10000;6,80666;2295,14521;0,03784
102,20000;6,81335;2294,76299;0,03790
102,30000;6,81994;2295,35196;0,03796
102,40000;6,82666;2295,65278;0,03802
102,50000;6,83333;2295,41156;0,03808
102,60000;6,83999;2296,90000;0,03815
102,70000;6,84666;2296,90615;0,03821
102,80000;6,85335;2297,58937;0,03827
102,90000;6,86002;2299,14039;0,03834
103,00000;6,86666;2298,47599;0,03840
103,10000;6,87335;2297,97792;0,03847
103,20000;6,88002;2298,38211;0,03853
103,30000;6,88666;2298,33815;0,03859
103,40000;6,89335;2299,34081;0,03865
103,50000;6,90005;2299,15604;0,03872
103,60000;6,90669;2300,41873;0,03878
103,70000;6,91330;2299,59153;0,03884
103,80000;6,91996;2299,94878;0,03891
103,90000;6,92663;2300,95144;0,03897
104,00000;6,93327;2300,17435;0,03903
104,10000;6,94002;2301,90083;0,03910
104,20000;6,94669;2302,74685;0,03916
104,30000;6,95333;2301,66595;0,03923
104,40000;6,95999;2302,03252;0,03929
104,50000;6,96669;2302,13273;0,03935
104,60000;6,97335;2302,58703;0,03942
104,70000;6,97996;2302,82843;0,03948
104,80000;6,98669;2303,34848;0,03954
104,90000;6,99338;2303,43621;0,03961
105,00000;6,99996;2303,88120;0,03967
105,10000;7,00666;2304,89951;0,03974
105,20000;7,01333;2303,78415;0,03980
105,30001;7,01993;2304,24777;0,03986
105,40001;7,02660;2304,89634;0,03993
105,50001;7,03335;2304,34816;0,03999
105,60001;7,04005;2304,81178;0,04006
105,70001;7,04669;2305,68610;0,04012
105,80001;7,05335;2305,14705;0,04019
105,90001;7,06002;2305,78948;0,04026
106,00001;7,06663;2306,12792;0,04032
106,10001;7,07335;2306,24378;0,04039
106,20001;7,08002;2306,25942;0,04045
106,30001;7,08666;2306,75451;0,04052
106,40001;7,09335;2306,28774;0,04058
106,50001;7,10002;2306,67628;0,04065
106,60001;7,10669;2307,97660;0,04072
106,70001;7,11330;2306,14673;0,04078
106,80001;7,11996;2306,68560;0,04085
106,90001;7,12666;2308,04235;0,04091
107,00001;7,13330;2306,56024;0,04098
107,10001;7,14005;2308,24612;0,04105
107,20001;7,14672;2307,51596;0,04111
107,30001;7,15330;2307,53478;0,04118
107,40001;7,15996;2308,26493;0,04124
107,50001;7,16669;2308,19602;0,04131
107,60001;7,17335;2308,48733;0,04137
107,70001;7,18002;2308,53744;0,04144
107,80001;7,18672;2308,51248;0,04151
107,90001;7,19338;2307,76351;0,04157
108,00001;7,19996;2309,39612;0,04164
108,10001;7,20666;2308,87905;0,04170
108,20001;7,21332;2308,65348;0,04177
108,30001;7,21991;2308,68477;0,04184
108,40001;7,22663;2308,76934;0,04191
108,50001;7,23338;2308,44039;0,04198
108,60001;7,24005;2309,14224;0,04205
108,70001;7,24666;2308,70675;0,04211
108,80001;7,25332;2309,18601;0,04218
108,90001;7,26002;2309,44306;0,04225
109,00001;7,26663;2308,76617;0,04231
109,10001;7,27335;2310,30788;0,04238
109,20001;7,28002;2309,17037;0,04245
109,30001;7,28663;2309,83160;0,04252
109,40001;7,29333;2310,10113;0,04259
109,50001;7,30002;2309,50247;0,04265
109,60001;7,30666;2309,76883;0,04272
109,70001;7,31327;2310,06965;0,04278
109,80001;7,31999;2309,33335;0,04285
109,90001;7,32672;2310,01023;0,04292
110,00001;7,33335;2309,71556;0,04299
110,10001;7,34005;2309,23928;0,04306
110,20001;7,34672;2309,77517;0,04313
110,30001;7,35330;2310,06965;0,04319
110,40001;7,35996;2309,36147;0,04326
110,50001;7,36669;2309,71556;0,04333
110,60001;7,37335;2311,04419;0,04340
110,70001;7,37999;2309,84725;0,04347
110,80001;7,38669;2310,28274;0,04354
110,90001;7,39335;2310,39878;0,04361
111,00001;7,39996;2309,75319;0,04368
111,10001;7,40666;2310,03202;0,04374
111,20001;7,41333;2310,69326;0,04381
111,30001;7,41993;2309,20184;0,04389
111,40001;7,42666;2310,24511;0,04396
111,50001;7,43335;2309,07649;0,04403
111,60001;7,44002;2310,38611;0,04410
111,70001;7,44663;2309,50881;0,04416
111,80001;7,45333;2309,41474;0,04423
111,90001;7,46002;2309,44939;0,04430
112,00001;7,46666;2310,63999;0,04437
112,10001;7,47338;2309,28324;0,04444
112,20001;7,48005;2309,29572;0,04451
112,30001;7,48666;2309,88171;0,04458
112,40001;7,49333;2308,97926;0,04465
112,50001;7,49999;2309,46504;0,04472
112,60001;7,50666;2309,54960;0,04479
112,70001;7,51330;2308,66913;0,04486
112,80001;7,51999;2308,96994;0,04493
112,90001;7,52669;2308,61586;0,04500
113,00001;7,53332;2307,85757;0,04507
113,10001;7,54002;2308,60319;0,04514
113,20001;7,54669;2308,63765;0,04521
113,30001;7,55330;2308,24929;0,04528
113,40001;7,55999;2308,80696;0,04535
113,50001;7,56669;2308,20216;0,04542
113,60001;7,57335;2308,78182;0,04549
113,70001;7,57996;2308,39327;0,04556
113,80001;7,58669;2309,16105;0,04563
113,90001;7,59335;2307,81995;0,04570
114,00001;7,59996;2308,11443;0,04577
114,10001;7,60669;2308,28989;0,04584
114,20001;7,61338;2307,88253;0,04591
114,30001;7,61996;2307,36248;0,04598
114,40001;7,62666;2307,96412;0,04606
114,50001;7,63335;2306,98958;0,04613
114,60001;7,64002;2306,88304;0,04620
114,70001;7,64663;2307,36248;0,04627
114,80001;7,65332;2306,47884;0,04634
114,90001;7,66002;2306,56974;0,04641
115,00001;7,66666;2307,19950;0,04648
115,10001;7,67333;2307,00206;0,04656
115,20001;7,68002;2306,51014;0,04663
115,30001;7,68663;2306,78581;0,04670
115,40001;7,69330;2305,83027;0,04677
115,50001;7,69999;2306,64797;0,04684
115,60001;7,70669;2305,97742;0,04692
115,70001;7,71332;2305,32568;0,04699
115,80001;7,71999;2305,66729;0,04706
115,90001;7,72669;2304,90267;0,04713
116,00001;7,73332;2304,35748;0,04720
116,10001;7,74002;2305,01555;0,04728
116,20001;7,74669;2305,37262;0,04734
116,30001;7,75332;2304,44204;0,04742
116,40001;7,75999;2304,66761;0,04749
116,50001;7,76669;2304,48600;0,04756
116,60001;7,77335;2304,43589;0,04764
116,70001;7,77996;2303,79980;0,04771
116,80001;7,78666;2304,44204;0,04778
116,90001;7,79335;2302,97241;0,04785
117,00001;7,79999;2302,89418;0,04792
117,10001;7,80669;2303,88753;0,04799
117,20001;7,81335;2302,13273;0,04807
117,30001;7,81996;2303,20431;0,04814
117,40001;7,82666;2302,87537;0,04821
117,50001;7,83335;2301,71289;0,04829
117,60001;7,84002;2302,72505;0,04836
117,70001;7,84666;2302,48999;0,04843
117,80001;7,85335;2301,30870;0,04850
117,90001;7,86002;2301,39643;0,04857
118,00001;7,86663;2301,19899;0,04865
118,10001;7,87332;2301,78814;0,04872
118,20001;7,88002;2300,69142;0,04880
118,30001;7,88663;2300,41556;0,04887
118,40001;7,89335;2300,93580;0,04894
118,50001;7,90008;2299,49448;0,04901
118,60001;7,90669;2300,50031;0,04909
118,70001;7,91330;2299,83907;0,04916
118,80001;7,91999;2300,01770;0,04923
118,90001;7,92666;2298,99306;0,04930
119,00001;7,93327;2299,05881;0,04938
119,10001;7,94002;2299,43488;0,04945
119,20001;7,94669;2298,25992;0,04952
119,30001;7,95330;2298,68907;0,04960
119,40001;7,95999;2298,40390;0,04967
119,50001;7,96669;2297,81810;0,04975
119,60001;7,97335;2298,72987;0,04982
119,70001;7,97996;2297,00953;0,04989
119,80001;7,98669;2296,94061;0,04997
119,90001;7,99338;2296,89050;0,05004
120,00001;7,99999;2297,02219;0,05011
120,10001;8,00669;2297,23528;0,05019
120,20001;8,01335;2296,04766;0,05026
120,30001;8,01996;2297,28539;0,05034
120,40001;8,02666;2295,77199;0,05041
120,50001;8,03335;2294,94162;0,05048
120,60001;8,04005;2295,64663;0,05056
120,63601;8,04241;2295,05114;0,05058
120,73601;8,04905;2295,25808;0,05065
120,74601;8,04971;2295,05748;0,05066
120,84601;8,05629;2293,13672;0,05074
120,94601;8,06292;2294,16452;0,05081
121,04601;8,06956;2293,63181;0,05088
121,14601;8,07626;2293,64112;0,05096
121,24601;8,08293;2293,89817;0,05103
121,34601;8,08956;2293,31851;0,05111
121,42001;8,09455;1969,84541;0,05514
121,42401;8,09483;1717,44172;0,05910
121,42801;8,09509;1441,10192;0,06375
121,43001;8,09520;1302,94291;0,06613
