Text Inputs : Specimen label;"1"
Dimension : Length;50,00000;mm
Dimension : Final length;100,00000;mm
Test : Rate 1;4,00000;mm/min
General : Unique Identifier;"{01EDD6F8-0764-412E-AC0D-440046881386}"

Time;Extension;Load;Strain 1
(sec);(mm);(N);(mm/mm)
0,00000;0,00000;-0,20755;0,00000
0,10000;0,00405;-0,90316;0,00000
0,20000;0,01020;-0,11354;0,00000
0,30000;0,01715;4,81848;0,00001
0,40000;0,02442;14,27202;0,00007
0,50000;0,03177;23,36835;0,00012
0,60000;0,03900;30,47496;0,00018
0,70000;0,04601;37,68185;0,00023
0,80000;0,05291;44,48451;0,00028
0,90000;0,05977;50,70436;0,00033
1,00000;0,06650;57,22188;0,00037
1,10000;0,07325;62,37323;0,00041
1,20000;0,07997;67,58412;0,00045
1,30000;0,08664;72,83262;0,00050
1,40000;0,09336;77,32281;0,00054
1,50000;0,10003;82,87524;0,00058
1,60000;0,10670;84,68949;0,00060
1,70000;0,11330;85,16264;0,00061
1,80000;0,11997;85,79872;0,00063
1,90000;0,12667;85,65146;0,00064
2,00000;0,13330;86,08074;0,00065
2,10000;0,14003;86,30634;0,00065
2,20000;0,14669;87,22757;0,00066
2,30000;0,15328;86,53195;0,00067
2,40000;0,15997;86,70115;0,00067
2,50000;0,16667;86,99256;0,00068
2,60000;0,17333;87,91066;0,00068
2,70000;0,18000;87,22757;0,00069
2,80000;0,18672;87,44377;0,00070
2,90000;0,19339;88,92588;0,00070
3,00000;0,19997;88,95095;0,00071
3,10000;0,20667;88,45587;0,00071
3,20000;0,21333;88,28354;0,00072
3,30000;0,21991;89,36143;0,00072
3,40000;0,22664;89,59956;0,00073
3,50000;0,23336;90,05078;0,00073
3,60000;0,24003;88,30234;0,00073
3,70000;0,24664;89,00109;0,00073
3,80000;0,25333;89,10762;0,00073
3,90000;0,26000;89,24863;0,00074
4,00000;0,26661;89,12956;0,00074
4,10000;0,27336;89,69044;0,00074
4,20000;0,28003;89,52437;0,00074
4,30000;0,28669;89,11389;0,00074
4,40000;0,29333;89,77191;0,00075
4,50000;0,30000;90,48947;0,00075
4,60000;0,30667;90,08838;0,00075
4,70000;0,31330;89,65910;0,00075
4,80000;0,32000;90,46439;0,00075
4,90000;0,32672;90,64927;0,00075
5,00000;0,33333;89,78131;0,00076
5,10000;0,34003;90,21373;0,00076
5,20000;0,34669;90,11659;0,00076
5,30000;0,35330;90,91874;0,00076
5,40000;0,35997;90,58660;0,00076
5,50000;0,36669;91,15374;0,00076
5,60000;0,37336;90,77773;0,00076
5,70000;0,38003;91,59556;0,00077
5,80000;0,38669;92,41966;0,00077
5,90000;0,39336;92,91787;0,00077
6,00000;0,39997;92,41966;0,00077
6,10000;0,40667;93,00247;0,00078
6,20000;0,41333;92,99620;0,00078
6,30000;0,41997;94,29344;0,00078
6,40000;0,42667;94,24017;0,00079
6,50000;0,43333;95,00473;0,00079
6,60000;0,44000;97,05086;0,00080
6,70000;0,44664;98,43269;0,00081
6,80000;0,45330;99,68294;0,00082
6,90000;0,46000;102,08314;0,00083
7,00000;0,46667;104,98782;0,00084
7,10000;0,47339;107,61990;0,00086
7,20000;0,48006;110,57159;0,00088
7,30000;0,48667;113,66741;0,00090
7,40000;0,49330;117,26771;0,00092
7,50000;0,50000;120,76462;0,00095
7,60000;0,50667;125,70603;0,00097
7,70000;0,51330;129,61342;0,00100
7,80000;0,51997;133,16046;0,00103
7,90000;0,52667;137,35298;0,00106
8,00000;0,53328;140,87495;0,00108
8,10000;0,54000;146,18924;0,00112
8,20000;0,54667;150,41936;0,00115
8,30000;0,55328;154,93463;0,00118
8,40000;0,56000;158,85454;0,00122
8,50000;0,56669;164,61378;0,00125
8,60000;0,57339;169,14158;0,00129
8,70000;0,58000;174,59061;0,00132
8,80000;0,58667;178,56692;0,00136
8,90000;0,59336;183,51773;0,00140
9,00000;0,59997;187,76666;0,00143
9,10000;0,60669;192,99635;0,00147
9,20000;0,61336;198,16963;0,00150
9,30000;0,61997;201,92661;0,00154
9,40000;0,62664;206,66749;0,00157
9,50000;0,63336;212,31391;0,00161
9,60000;0,64000;215,49121;0,00164
9,70000;0,64664;221,29430;0,00168
9,80000;0,65333;226,20438;0,00172
9,90000;0,66003;231,12700;0,00176
10,00000;0,66667;236,12168;0,00180
10,10000;0,67336;241,32631;0,00184
10,20000;0,68003;246,00765;0,00188
10,30000;0,68667;250,93965;0,00193
10,40000;0,69333;256,33541;0,00197
10,50000;0,70003;261,92544;0,00201
10,60000;0,70669;266,76657;0,00205
10,70000;0,71330;271,04684;0,00209
10,80000;0,71997;276,56166;0,00213
10,90000;0,72664;281,40282;0,00218
11,00000;0,73328;287,00538;0,00222
11,10000;0,74000;291,19791;0,00226
11,20000;0,74669;296,13303;0,00230
11,30000;0,75333;300,26918;0,00234
11,40000;0,76003;305,84040;0,00238
11,50000;0,76672;311,00116;0,00242
11,60000;0,77336;314,97120;0,00246
11,70000;0,77997;320,20716;0,00250
11,80000;0,78667;324,44668;0,00254
11,90000;0,79336;329,15936;0,00258
12,00000;0,79997;333,76862;0,00262
12,10000;0,80667;338,55962;0,00267
12,20000;0,81333;343,01223;0,00270
12,30000;0,81994;347,38649;0,00275
12,40000;0,82664;352,34357;0,00278
12,50000;0,83333;356,65517;0,00283
12,60000;0,84003;362,09165;0,00287
12,70000;0,84667;365,38176;0,00291
12,80000;0,85336;370,29497;0,00294
12,90000;0,86003;374,77575;0,00298
13,00000;0,86664;379,70778;0,00302
13,10000;0,87333;383,63081;0,00306
13,20000;0,88003;387,79827;0,00310
13,30000;0,88664;392,43260;0,00314
13,40000;0,89336;396,77867;0,00318
13,50000;0,90006;401,45372;0,00322
13,60000;0,90669;405,12299;0,00326
13,70000;0,91330;410,08946;0,00330
13,80000;0,91997;413,82448;0,00334
13,90000;0,92664;418,20505;0,00338
14,00000;0,93328;422,43516;0,00341
14,10000;0,94003;427,29196;0,00345
14,20000;0,94669;430,43480;0,00349
14,30000;0,95333;434,78399;0,00353
14,40000;0,96000;438,47831;0,00357
14,50000;0,96669;444,05265;0,00361
14,60000;0,97336;448,46768;0,00364
14,70000;0,97997;451,69196;0,00368
14,80000;0,98669;455,84999;0,00372
14,90000;0,99339;460,09268;0,00376
15,00000;0,99997;464,12223;0,00380
15,10000;1,00664;468,58424;0,00383
15,20000;1,01333;472,85510;0,00387
15,30000;1,01991;477,18552;0,00391
15,40000;1,02661;480,29386;0,00394
15,50000;1,03336;484,45193;0,00398
15,60000;1,04006;487,85480;0,00402
15,70000;1,04669;491,71518;0,00405
15,80000;1,05336;495,69779;0,00409
15,90000;1,06003;499,82136;0,00413
16,00000;1,06664;503,30572;0,00416
16,10000;1,07333;507,53588;0,00420
16,20000;1,08003;511,28343;0,00424
16,30000;1,08664;513,76512;0,00427
16,40000;1,09333;517,10536;0,00431
16,50000;1,10000;521,46707;0,00434
16,60000;1,10667;525,44964;0,00437
16,70000;1,11330;528,21962;0,00441
16,80000;1,11997;531,45015;0,00445
16,90000;1,12667;535,97172;0,00448
17,00000;1,13330;538,97663;0,00451
17,10000;1,14003;542,27300;0,00455
17,20000;1,14669;546,18353;0,00458
17,30000;1,15330;549,85592;0,00461
17,40000;1,15997;552,87653;0,00465
17,50000;1,16669;555,39580;0,00468
17,60000;1,17336;559,80454;0,00471
17,70000;1,18003;562,42719;0,00475
17,80000;1,18672;566,48501;0,00478
17,90000;1,19336;569,68736;0,00482
18,00000;1,19997;572,82704;0,00485
18,10000;1,20667;576,02939;0,00488
18,20000;1,21333;580,11538;0,00492
18,30000;1,21991;583,43681;0,00495
18,40000;1,22664;586,15035;0,00498
18,50000;1,23336;590,55910;0,00502
18,60000;1,24003;592,93113;0,00505
18,70000;1,24667;595,82014;0,00508
18,80000;1,25333;599,38910;0,00512
18,90000;1,26000;603,03952;0,00515
19,00000;1,26664;606,57403;0,00518
19,10000;1,27333;609,87039;0,00522
19,20000;1,28003;613,14795;0,00525
19,30000;1,28664;616,43491;0,00528
19,40000;1,29330;619,66861;0,00532
19,50000;1,30000;623,51334;0,00535
19,60000;1,30667;626,01068;0,00538
19,70000;1,31327;629,66738;0,00542
19,80000;1,32000;633,99780;0,00545
19,90000;1,32672;635,94049;0,00548
20,00000;1,33336;639,64734;0,00552
20,10000;1,34006;642,93430;0,00555
20,20000;1,34669;647,14248;0,00558
20,30000;1,35330;648,75307;0,00561
20,40000;1,35997;652,91114;0,00565
20,50000;1,36667;656,00695;0,00568
20,60000;1,37336;658,42909;0,00571
20,70000;1,38000;660,66324;0,00574
20,80000;1,38669;664,39202;0,00577
20,90000;1,39339;667,47218;0,00580
21,00000;1,39997;670,45833;0,00584
21,10000;1,40664;673,46329;0,00587
21,20000;1,41333;676,64683;0,00590
21,30000;1,41994;679,74268;0,00593
21,40000;1,42666;682,19299;0,00596
21,50000;1,43336;685,32955;0,00599
21,60000;1,44003;687,93972;0,00602
21,70000;1,44664;690,99795;0,00605
21,80000;1,45333;694,32878;0,00608
21,90000;1,46003;697,33998;0,00611
22,00000;1,46667;700,57367;0,00614
22,10000;1,47336;703,67265;0,00618
22,20000;1,48003;706,91574;0,00621
22,30000;1,48664;709,26268;0,00624
22,40000;1,49333;713,03532;0,00627
22,50000;1,50000;715,72694;0,00630
22,60000;1,50666;719,91943;0,00633
22,70000;1,51330;721,35143;0,00636
22,80000;1,52000;724,65404;0,00639
22,90000;1,52666;727,36447;0,00643
23,00000;1,53330;730,25348;0,00646
23,10000;1,54003;732,98896;0,00648
23,20000;1,54669;736,20388;0,00652
23,30000;1,55330;739,49085;0,00655
23,40000;1,56000;742,53650;0,00658
23,50000;1,56669;744,63906;0,00661
23,60000;1,57336;748,07955;0,00664
23,70000;1,57997;751,24116;0,00667
23,80000;1,58669;753,61002;0,00670
23,90000;1,59336;756,28911;0,00673
24,00000;1,59994;760,25603;0,00676
24,10000;1,60669;762,31156;0,00679
24,20000;1,61336;766,09673;0,00682
24,30000;1,61997;767,89535;0,00685
24,40000;1,62666;771,33584;0,00689
24,50000;1,63336;774,13400;0,00692
24,60000;1,64003;777,45854;0,00695
24,70000;1,64664;779,92766;0,00698
24,80000;1,65333;783,00154;0,00701
24,90000;1,66003;786,48590;0,00704
25,00000;1,66664;788,28139;0,00707
25,10000;1,67333;791,96319;0,00710
25,20000;1,68003;795,36922;0,00713
25,30000;1,68664;797,57823;0,00716
25,40000;1,69333;799,73089;0,00719
25,50000;1,70000;802,40685;0,00722
25,60000;1,70669;805,99459;0,00726
25,70000;1,71333;809,21892;0,00729
25,80000;1,72000;811,18355;0,00732
25,90000;1,72666;815,08784;0,00735
26,00000;1,73327;818,84796;0,00738
26,10000;1,74000;820,85337;0,00741
26,20000;1,74669;823,67025;0,00744
26,30000;1,75333;826,11749;0,00747
26,40000;1,76003;829,56115;0,00750
26,50000;1,76669;833,35573;0,00753
26,60000;1,77336;835,22946;0,00757
26,70000;1,77997;837,71115;0,00760
26,80000;1,78666;840,92291;0,00763
26,90000;1,79333;844,55768;0,00766
27,00000;1,79997;847,85409;0,00769
27,10000;1,80669;850,19162;0,00772
27,20000;1,81336;852,94275;0,00775
27,30000;1,81994;855,90379;0,00778
27,40000;1,82664;858,73017;0,00781
27,50000;1,83333;860,19980;0,00784
27,60000;1,84000;863,98181;0,00788
27,70000;1,84664;867,10583;0,00790
27,80000;1,85336;870,37710;0,00794
27,90000;1,86003;872,58304;0,00797
28,00000;1,86664;876,13324;0,00800
28,10000;1,87336;878,90001;0,00803
28,20000;1,88003;881,79847;0,00806
28,30000;1,88664;883,84459;0,00809
28,40000;1,89336;886,71483;0,00812
28,50000;1,90005;889,97670;0,00815
28,60000;1,90669;892,07292;0,00818
28,70000;1,91333;894,97762;0,00821
28,80000;1,92000;897,93876;0,00825
28,90000;1,92666;901,41371;0,00828
29,00000;1,93327;903,84837;0,00831
29,10000;1,94000;906,41463;0,00834
29,20000;1,94669;909,68907;0,00837
29,30000;1,95330;912,67833;0,00840
29,40000;1,95997;915,18825;0,00843
29,50000;1,96666;917,54775;0,00846
29,60000;1,97333;920,42731;0,00850
29,70000;1,97997;923,36331;0,00852
29,80000;1,98669;925,73222;0,00856
29,90000;1,99339;928,90635;0,00859
30,00000;2,00000;932,23723;0,00862
30,10000;2,00669;934,87557;0,00865
30,20000;2,01336;937,17547;0,00868
30,30000;2,01994;939,68846;0,00871
30,40000;2,02666;942,60257;0,00874
30,50000;2,03336;946,00860;0,00877
30,60000;2,04005;948,00144;0,00880
30,70000;2,04666;951,41381;0,00883
30,80000;2,05333;953,48181;0,00887
30,90000;2,06000;956,77190;0,00890
31,00000;2,06661;959,94612;0,00893
31,10000;2,07330;962,07997;0,00896
31,20000;2,08000;964,85931;0,00899
31,30000;2,08666;967,64807;0,00902
31,40000;2,09336;970,78457;0,00905
31,50000;2,10003;972,62394;0,00908
31,60000;2,10669;976,40287;0,00911
31,70000;2,11330;978,74040;0,00915
31,80000;2,12000;981,11238;0,00918
31,90000;2,12666;984,58426;0,00921
32,00000;2,13330;987,75523;0,00924
32,10000;2,14003;990,39050;0,00927
32,20000;2,14669;992,45543;0,00930
32,30000;2,15330;994,84930;0,00933
32,40000;2,15997;998,51228;0,00936
32,50000;2,16666;1000,72445;0,00940
32,60000;2,17336;1004,32169;0,00943
32,70000;2,18003;1007,15738;0,00946
32,80000;2,18672;1009,39153;0,00949
32,90000;2,19339;1012,39961;0,00952
33,00000;2,20000;1016,05635;0,00955
33,10000;2,20666;1018,09306;0,00958
33,20000;2,21333;1020,70011;0,00961
33,30000;2,21994;1022,97813;0,00964
33,40000;2,22664;1025,47854;0,00968
33,50000;2,23336;1028,81249;0,00971
33,60000;2,24003;1031,82998;0,00974
33,70000;2,24664;1034,09234;0,00977
33,80000;2,25333;1037,32916;0,00980
33,90000;2,26000;1039,76699;0,00983
34,00000;2,26661;1042,28621;0,00986
34,10000;2,27333;1045,95236;0,00990
34,20000;2,28003;1047,97967;0,00993
34,30000;2,28669;1050,44255;0,00996
34,40000;2,29333;1053,46628;0,00999
34,50000;2,30003;1056,38355;0,01002
34,60000;2,30669;1059,82721;0,01005
34,70000;2,31330;1061,66964;0,01008
34,80000;2,32000;1064,10431;0,01011
34,90000;2,32669;1067,90829;0,01015
35,00000;2,33333;1070,39930;0,01018
35,10000;2,34003;1072,96566;0,01021
35,20000;2,34669;1075,54132;0,01024
35,30000;2,35330;1078,62456;0,01027
35,40000;2,35997;1080,82741;0,01030
35,50000;2,36669;1083,08662;0,01034
35,60000;2,37336;1086,94695;0,01037
35,70000;2,38003;1089,43805;0,01040
35,80000;2,38669;1091,40901;0,01044
35,90000;2,39336;1095,09388;0,01047
36,00000;2,40000;1098,37456;0,01050
36,10000;2,40666;1101,10380;0,01053
36,20000;2,41333;1102,20360;0,01056
36,30000;2,41994;1104,59439;0,01060
36,40000;2,42666;1108,09756;0,01063
36,50000;2,43333;1110,37875;0,01066
36,60000;2,44000;1113,91321;0,01069
36,70000;2,44664;1116,56412;0,01072
36,80000;2,45333;1119,14296;0,01076
36,90000;2,46000;1121,66218;0,01079
37,00000;2,46666;1124,67967;0,01082
37,10000;2,47339;1127,06106;0,01085
37,20000;2,48005;1129,32650;0,01089
37,30000;2,48666;1132,17169;0,01092
37,40000;2,49333;1134,67844;0,01095
37,50000;2,50000;1137,82436;0,01098
37,60000;2,50666;1140,84184;0,01101
37,70000;2,51330;1142,41485;0,01105
37,80000;2,52000;1146,05278;0,01108
37,90000;2,52666;1148,81648;0,01111
38,00000;2,53330;1151,63652;0,01114
38,10000;2,54000;1154,30625;0,01117
38,20000;2,54669;1156,71586;0,01121
38,30000;2,55327;1159,16934;0,01124
38,40000;2,56000;1161,94868;0,01127
38,50000;2,56669;1164,58703;0,01130
38,60000;2,57339;1167,46351;0,01134
38,70000;2,58000;1169,48765;0,01137
38,80000;2,58669;1173,11617;0,01140
38,90000;2,59336;1175,73254;0,01144
39,00000;2,59997;1178,59654;0,01147
39,10000;2,60669;1181,03744;0,01150
39,20000;2,61336;1183,52538;0,01153
39,30000;2,61997;1185,94440;0,01157
39,40000;2,62664;1188,94000;0,01160
39,50000;2,63333;1191,84153;0,01163
39,60000;2,64000;1195,03448;0,01166
39,70000;2,64661;1196,53223;0,01170
39,80000;2,65333;1199,63121;0,01173
39,90000;2,66003;1202,89624;0,01176
40,00000;2,66666;1206,43703;0,01179
40,10000;2,67336;1208,35472;0,01183
40,20000;2,68005;1210,21597;0,01186
40,30000;2,68666;1212,88560;0,01189
40,40000;2,69333;1216,27282;0,01193
40,50000;2,70003;1218,97385;0,01196
40,60000;2,70669;1221,54010;0,01199
40,70000;2,71330;1223,35441;0,01202
40,80000;2,71997;1227,11454;0,01206
40,90000;2,72666;1230,19461;0,01209
41,00000;2,73327;1232,54163;0,01212
41,10000;2,74000;1234,99501;0,01215
41,20000;2,74669;1238,07834;0,01219
41,30000;2,75333;1240,52558;0,01222
41,40000;2,76003;1243,85953;0,01226
41,50000;2,76669;1245,26955;0,01229
41,60000;2,77336;1249,00462;0,01233
41,70000;2,77997;1252,02211;0,01236
41,80000;2,78666;1254,14031;0,01239
41,90000;2,79336;1257,41474;0,01242
42,00000;2,79997;1260,04051;0,01246
42,10000;2,80669;1262,59429;0,01249
42,20000;2,81333;1264,55892;0,01252
42,30000;2,81994;1267,33826;0,01256
42,40000;2,82663;1270,10513;0,01259
42,50000;2,83333;1273,80257;0,01262
42,60000;2,84003;1276,27477;0,01266
42,70000;2,84666;1278,69695;0,01269
42,80000;2,85336;1281,40738;0,01273
42,90000;2,86003;1284,25881;0,01276
43,00000;2,86666;1286,62456;0,01279
43,10000;2,87333;1290,32191;0,01282
43,20000;2,88003;1292,52160;0,01286
43,30000;2,88664;1294,68990;0,01289
43,40000;2,89336;1297,47558;0,01292
43,50000;2,90005;1299,80370;0,01296
43,60000;2,90669;1303,47610;0,01299
43,70000;2,91330;1305,00831;0,01302
43,80000;2,92000;1308,18877;0,01306
43,90000;2,92666;1311,16547;0,01309
44,00000;2,93327;1312,90453;0,01312
44,10000;2,94000;1316,24788;0,01316
44,20000;2,94669;1318,35667;0,01319
44,30000;2,95330;1321,60923;0,01322
44,40000;2,96000;1324,44184;0,01326
44,50000;2,96669;1327,49379;0,01329
44,60000;2,97336;1329,83755;0,01333
44,70000;2,97997;1332,02784;0,01336
44,80000;2,98669;1334,42804;0,01339
44,90000;2,99339;1337,23244;0,01343
45,00000;2,99997;1340,55391;0,01346
45,10000;3,00666;1343,33009;0,01350
45,20000;3,01333;1345,18510;0,01353
45,30000;3,01994;1347,78898;0,01356
45,40000;3,02661;1350,19859;0,01360
45,50000;3,03336;1353,44798;0,01363
45,60000;3,04005;1355,70718;0,01367
45,70000;3,04669;1358,84061;0,01370
45,80000;3,05336;1360,87732;0,01373
45,90000;3,06003;1364,03264;0,01377
46,00000;3,06663;1366,33571;0,01380
46,10000;3,07333;1369,34072;0,01384
46,20000;3,08002;1371,80043;0,01387
46,30000;3,08663;1374,16301;0,01391
46,40000;3,09333;1376,64787;0,01394
46,50000;3,10000;1379,62773;0,01397
46,60000;3,10666;1382,47283;0,01401
46,70000;3,11330;1384,60984;0,01404
46,80000;3,11997;1387,15738;0,01408
46,90000;3,12663;1389,98684;0,01412
47,00000;3,13330;1392,37139;0,01415
47,10000;3,14003;1395,21025;0,01418
47,20000;3,14672;1397,86117;0,01422
47,30000;3,15330;1400,51823;0,01425
47,40000;3,15997;1402,75555;0,01429
47,50000;3,16666;1406,02365;0,01432
47,60000;3,17336;1408,58367;0,01436
47,70000;3,18002;1410,62355;0,01439
47,80000;3,18672;1413,78837;0,01443
47,90000;3,19339;1416,16343;0,01446
48,00000;3,19997;1419,47232;0,01450
48,10000;3,20666;1421,58112;0,01453
48,20000;3,21330;1423,98765;0,01457
48,30000;3,21991;1426,86721;0,01460
48,40000;3,22663;1429,11701;0,01464
48,50000;3,23336;1432,25044;0,01468
48,60000;3,24005;1434,85749;0,01472
48,70000;3,24666;1437,39246;0,01475
48,80000;3,25333;1440,56659;0,01478
48,90000;3,26000;1443,25504;0,01482
49,00000;3,26663;1445,53622;0,01485
49,10000;3,27336;1447,72334;0,01489
49,20000;3,28002;1450,73142;0,01493
49,30000;3,28663;1453,35719;0,01496
49,40000;3,29333;1455,69788;0,01500
49,50000;3,30000;1458,58377;0,01504
49,60000;3,30666;1462,30003;0,01507
49,70000;3,31327;1463,32774;0,01511
49,80000;3,32000;1466,42048;0,01514
49,90000;3,32672;1468,73919;0,01518
50,00000;3,33336;1472,21731;0,01521
50,10000;3,34005;1474,24778;0,01525
50,20000;3,34669;1476,91742;0,01529
50,30000;3,35330;1479,15781;0,01532
50,40000;3,36000;1482,15964;0,01535
50,50000;3,36666;1484,55361;0,01539
50,60000;3,37336;1487,97529;0,01543
50,70000;3,37997;1490,61680;0,01546
50,80000;3,38666;1492,40913;0,01550
50,90000;3,39336;1495,71802;0,01554
51,00000;3,39997;1498,05872;0,01557
51,10000;3,40663;1500,70330;0,01561
51,20000;3,41333;1503,01578;0,01564
51,30000;3,41994;1506,59410;0,01568
51,40000;3,42666;1507,57171;0,01571
51,50000;3,43336;1510,91199;0,01575
51,60000;3,44002;1513,80412;0,01578
51,70000;3,44666;1516,25760;0,01582
51,80000;3,45333;1518,56067;0,01586
51,90000;3,46002;1520,97968;0,01589
52,00000;3,46666;1523,40177;0,01593
52,10000;3,47339;1526,31588;0,01597
52,20000;3,48002;1528,16148;0,01600
52,30000;3,48663;1531,75863;0,01604
52,40000;3,49330;1533,71077;0,01607
52,50000;3,49997;1536,68756;0,01611
52,60000;3,50663;1539,27580;0,01615
52,70000;3,51327;1540,70463;0,01618
52,80000;3,52000;1543,91639;0,01622
52,90000;3,52669;1547,16885;0,01626
53,00000;3,53333;1549,50013;0,01629
53,10000;3,54002;1551,90350;0,01633
53,20000;3,54669;1554,29430;0,01636
53,30000;3,55330;1557,15197;0,01640
53,40000;3,56000;1559,31087;0,01643
53,50000;3,56669;1561,73930;0,01647
53,60000;3,57336;1565,27683;0,01651
53,70000;3,57997;1566,50823;0,01654
53,80000;3,58669;1569,71384;0,01658
53,90000;3,59336;1571,87581;0,01662
54,00000;3,59994;1574,11937;0,01665
54,10000;3,60669;1577,16814;0,01669
54,20000;3,61339;1578,90730;0,01672
54,30000;3,61997;1582,45433;0,01676
54,40000;3,62666;1584,89831;0,01680
54,50000;3,63336;1586,99770;0,01683
54,60000;3,64002;1589,71455;0,01687
54,70000;3,64663;1591,88900;0,01691
54,80000;3,65333;1594,54625;0,01694
54,90000;3,66002;1597,51046;0,01698
55,00000;3,66663;1599,65362;0,01702
55,10000;3,67330;1602,70873;0,01706
55,20000;3,68000;1604,61385;0,01709
55,30000;3,68661;1607,73173;0,01713
55,40000;3,69327;1609,20434;0,01717
55,50000;3,70000;1612,89237;0,01721
55,60000;3,70669;1614,49667;0,01724
55,70000;3,71333;1617,63020;0,01728
55,80000;3,72002;1620,58808;0,01732
55,90000;3,72672;1621,75689;0,01736
56,00000;3,73333;1625,21619;0,01739
56,10000;3,74005;1627,55363;0,01743
56,20000;3,74672;1629,66251;0,01747
56,30000;3,75333;1632,14095;0,01751
56,40000;3,76002;1635,39983;0,01755
56,50000;3,76669;1637,16078;0,01758
56,60000;3,77336;1640,54167;0,01762
56,70000;3,77997;1641,78573;0,01766
56,80000;3,78666;1645,30464;0,01769
56,90000;3,79333;1647,64524;0,01773
57,00000;3,79997;1650,32744;0,01777
57,10000;3,80666;1653,20076;0,01781
57,20000;3,81336;1655,27519;0,01785
57,30000;3,81994;1657,81640;0,01788
57,40000;3,82661;1660,53306;0,01792
57,50000;3,83330;1662,53839;0,01796
57,60000;3,84000;1666,08226;0,01800
57,70000;3,84663;1667,55822;0,01804
57,80000;3,85336;1670,50045;0,01808
57,90000;3,86002;1672,45567;0,01812
58,00000;3,86663;1675,84606;0,01816
58,10000;3,87336;1677,53492;0,01820
58,20000;3,88002;1680,95659;0,01823
58,30000;3,88663;1682,86189;0,01828
58,40000;3,89336;1685,42173;0,01831
58,50000;3,90008;1687,71539;0,01835
58,60000;3,90669;1690,54810;0,01839
58,70000;3,91330;1692,64115;0,01843
58,80000;3,92000;1695,58041;0,01846
58,90000;3,92666;1697,72357;0,01850
59,00000;3,93327;1699,39995;0,01854
59,10000;3,94000;1703,33870;0,01858
59,20000;3,94669;1704,84595;0,01862
59,30000;3,95327;1707,06436;0,01866
59,40000;3,95997;1709,16691;0,01870
59,50000;3,96666;1711,79269;0,01874
59,60000;3,97333;1714,86661;0,01878
59,70000;3,97997;1716,95966;0,01882
59,80000;3,98669;1719,28778;0,01886
59,90000;3,99339;1721,01445;0,01890
60,00000;4,00002;1723,84381;0,01894
60,10000;4,00669;1726,43531;0,01898
60,20000;4,01336;1729,13931;0,01902
60,30000;4,01997;1730,96620;0,01906
60,40000;4,02663;1733,85199;0,01910
60,50000;4,03339;1736,15515;0,01914
60,60000;4,04005;1738,98153;0,01918
60,70000;4,04666;1740,73298;0,01922
60,80000;4,05333;1743,27120;0,01925
60,90000;4,06002;1745,86251;0,01930
61,00000;4,06663;1748,26272;0,01933
61,10000;4,07330;1750,28052;0,01937
61,20000;4,08000;1752,91896;0,01941
61,30000;4,08663;1754,70505;0,01945
61,40000;4,09333;1757,67243;0,01949
61,50000;4,10005;1759,34881;0,01953
61,60000;4,10669;1761,98706;0,01957
61,70000;4,11330;1763,81692;0,01961
61,80000;4,11999;1766,27990;0,01965
61,90000;4,12666;1769,00905;0,01969
62,00000;4,13330;1771,28389;0,01973
62,10000;4,14002;1774,67428;0,01978
62,20000;4,14669;1776,30987;0,01982
62,30000;4,15327;1778,52530;0,01986
62,40000;4,15997;1780,96928;0,01990
62,50000;4,16669;1783,24115;0,01994
62,60000;4,17336;1785,44708;0,01998
62,70000;4,18002;1787,81282;0,02002
62,80000;4,18672;1789,39514;0,02006
62,90000;4,19339;1791,65117;0,02010
63,00000;4,20000;1794,65618;0,02013
63,10000;4,20666;1796,47673;0,02017
63,20000;4,21333;1799,13379;0,02021
63,30000;4,21991;1801,60608;0,02025
63,40000;4,22663;1803,19156;0,02029
63,50000;4,23336;1805,67950;0,02033
63,60000;4,24002;1808,47459;0,02037
63,70000;4,24663;1810,09769;0,02041
63,80000;4,25333;1812,83318;0,02045
63,90000;4,26002;1815,26467;0,02050
64,00000;4,26660;1816,83451;0,02054
64,10000;4,27336;1820,14033;0,02058
64,20000;4,28005;1821,72582;0,02062
64,30000;4,28669;1823,29565;0,02066
64,40000;4,29336;1826,51989;0,02070
64,50000;4,30002;1829,13952;0,02074
64,60000;4,30669;1831,36743;0,02078
64,70000;4,31330;1832,84637;0,02082
64,80000;4,31999;1835,74483;0,02086
64,90000;4,32672;1837,76263;0,02090
65,00000;4,33333;1840,23175;0,02094
65,10000;4,34002;1842,36262;0,02099
65,20000;4,34669;1844,72837;0,02103
65,30000;4,35327;1848,45403;0,02107
65,40000;4,35997;1849,14637;0,02111
65,50000;4,36666;1852,78747;0,02115
65,60000;4,37336;1854,13174;0,02119
65,70000;4,38002;1856,34382;0,02123
65,80000;4,38669;1858,39944;0,02128
65,90000;4,39336;1860,69310;0,02132
66,00000;4,39997;1863,55710;0,02136
66,10000;4,40663;1865,43092;0,02140
66,20000;4,41333;1866,99759;0,02144
66,30000;4,41997;1869,62653;0,02148
66,40000;4,42666;1871,45323;0,02152
66,50000;4,43336;1874,51467;0,02156
66,60000;4,44002;1876,15976;0,02161
66,70000;4,44666;1878,83563;0,02165
66,80000;4,45336;1880,89423;0,02169
66,90000;4,46002;1883,42612;0,02173
67,00000;4,46666;1885,31559;0,02178
67,10000;4,47339;1887,17060;0,02182
67,20000;4,48005;1889,47357;0,02186
67,30000;4,48666;1892,51620;0,02190
67,40000;4,49333;1894,38052;0,02194
67,50000;4,49999;1896,16345;0,02199
67,60000;4,50666;1898,39136;0,02203
67,70000;4,51327;1900,61294;0,02207
67,80000;4,51994;1902,03246;0,02211
67,90000;4,52663;1905,04678;0,02215
68,00000;4,53330;1906,35342;0,02220
68,10000;4,54002;1909,61212;0,02224
68,20000;4,54669;1911,24156;0,02229
68,30000;4,55330;1913,67622;0,02233
68,40000;4,55999;1915,98553;0,02237
68,50000;4,56669;1918,26988;0,02242
68,60000;4,57338;1919,88982;0,02246
68,70000;4,57999;1921,87019;0,02250
68,80000;4,58669;1923,89116;0,02255
68,90000;4,59338;1926,83656;0,02259
69,00000;4,59997;1928,03051;0,02263
69,10000;4,60669;1931,36130;0,02268
69,20000;4,61336;1932,60200;0,02272
69,30000;4,61994;1936,02387;0,02276
69,40000;4,62663;1936,76949;0,02280
69,50000;4,63336;1938,96294;0,02285
69,60000;4,64002;1941,65148;0,02289
69,70000;4,64663;1943,13359;0,02294
69,80000;4,65333;1945,77500;0,02298
69,90000;4,66002;1947,58922;0,02303
70,00000;4,66666;1950,21816;0,02307
70,10000;4,67336;1951,74422;0,02312
70,20000;4,68005;1953,85292;0,02316
70,30000;4,68666;1956,33788;0,02320
70,40000;4,69333;1958,34637;0,02325
70,50000;4,70002;1960,45507;0,02329
70,60000;4,70669;1962,04055;0,02333
70,70000;4,71330;1963,43493;0,02338
70,80000;4,71997;1965,45925;0,02342
70,90000;4,72663;1968,10067;0,02346
71,00000;4,73327;1969,46058;0,02351
71,10000;4,73999;1972,04556;0,02355
71,20000;4,74669;1974,32358;0,02359
71,30000;4,75333;1976,98697;0,02364
71,40000;4,76002;1978,48789;0,02368
71,50000;4,76672;1979,62858;0,02373
71,60000;4,77338;1982,32960;0,02377
71,70000;4,77997;1984,27234;0,02382
71,80000;4,78669;1986,26835;0,02386
71,90000;4,79336;1988,00415;0,02391
72,00000;4,79997;1990,32910;0,02395
72,10000;4,80669;1992,41284;0,02400
72,20000;4,81333;1993,85434;0,02404
72,30000;4,81994;1995,75312;0,02408
72,40000;4,82663;1998,08441;0,02413
72,50000;4,83333;2000,14003;0,02417
72,60000;4,83999;2001,83820;0,02422
72,70000;4,84663;2003,13870;0,02426
72,80000;4,85333;2005,64843;0,02431
72,90000;4,86002;2008,34330;0,02435
73,00000;4,86666;2010,06979;0,02440
73,10000;4,87336;2011,70221;0,02444
73,20000;4,88002;2014,24658;0,02449
73,30000;4,88666;2015,35579;0,02454
73,40000;4,89336;2017,16702;0,02458
73,50000;4,90005;2018,72122;0,02462
73,60000;4,90669;2021,30619;0,02467
73,70000;4,91330;2022,39044;0,02471
73,80000;4,91997;2024,18584;0,02476
73,90000;4,92663;2026,15373;0,02480
74,00000;4,93327;2028,22480;0,02485
74,10000;4,93999;2031,16406;0,02489
74,20000;4,94669;2032,47685;0,02494
74,30000;4,95333;2034,00906;0,02499
74,40000;4,95999;2036,19003;0,02503
74,50000;4,96669;2038,73757;0,02508
74,60000;4,97336;2040,56427;0,02513
74,70000;4,97997;2041,54495;0,02517
74,80000;4,98669;2043,55977;0,02522
74,90000;4,99338;2045,82214;0,02526
75,00000;4,99999;2047,74290;0,02531
75,10000;5,00666;2049,55414;0,02535
75,20000;5,01336;2050,88891;0,02540
75,30000;5,01994;2052,19556;0,02545
75,40000;5,02663;2054,49853;0,02549
75,50000;5,03336;2055,65486;0,02554
75,60000;5,04005;2058,39667;0,02558
75,70000;5,04669;2060,70598;0,02563
75,80000;5,05336;2061,31693;0,02568
75,90000;5,06002;2063,48207;0,02572
76,00000;5,06663;2065,76958;0,02577
76,10000;5,07336;2068,16662;0,02582
76,20000;5,08002;2069,02195;0,02586
76,30000;5,08663;2071,39086;0,02591
76,40000;5,09333;2072,73196;0,02596
76,50000;5,09999;2075,47378;0,02601
76,60000;5,10666;2076,42950;0,02605
76,70000;5,11327;2077,67654;0,02610
76,80000;5,11994;2079,43451;0,02615
76,90000;5,12663;2081,58400;0,02619
77,00000;5,13333;2083,95589;0,02624
77,10000;5,14005;2085,17797;0,02629
77,20000;5,14672;2086,31232;0,02634
77,30000;5,15330;2088,37092;0,02638
77,40000;5,15999;2090,39822;0,02643
77,50000;5,16669;2092,72020;0,02648
77,60000;5,17336;2093,89199;0,02653
77,70000;5,18002;2095,66560;0,02658
77,80000;5,18672;2097,16652;0,02663
77,90000;5,19338;2098,97757;0,02667
78,00000;5,19999;2100,93595;0,02672
78,10000;5,20666;2103,49914;0,02677
78,20000;5,21330;2104,26990;0,02681
78,30000;5,21988;2106,20333;0,02686
78,40000;5,22660;2107,30005;0,02691
78,50000;5,23333;2109,61867;0,02696
78,60000;5,24002;2110,92532;0,02701
78,70000;5,24663;2112,41059;0,02705
78,80000;5,25333;2114,11212;0,02710
78,90000;5,26002;2116,43707;0,02715
79,00000;5,26666;2118,15108;0,02720
79,10000;5,27336;2119,63318;0,02725
79,20000;5,28005;2120,62337;0,02729
79,30000;5,28666;2123,30557;0,02734
79,40000;5,29333;2124,80016;0,02739
79,50000;5,30002;2125,23565;0,02744
79,60000;5,30669;2127,66714;0,02749
79,70000;5,31330;2128,70128;0,02754
79,80000;5,31999;2130,02674;0,02759
79,90000;5,32672;2131,56212;0,02763
80,00000;5,33336;2133,43892;0,02768
80,10000;5,34005;2135,67633;0,02773
80,20000;5,34669;2136,47839;0,02778
80,30000;5,35330;2138,19239;0,02783
80,40000;5,35997;2139,57429;0,02788
80,50000;5,36666;2141,50753;0,02792
80,60000;5,37336;2142,71396;0,02797
80,70000;5,37999;2145,11100;0,02802
80,80000;5,38669;2146,42696;0,02807
80,90000;5,39338;2147,92490;0,02812
81,00000;5,39999;2149,19709;0,02817
81,10000;5,40666;2151,54085;0,02822
81,20000;5,41333;2152,22072;0,02827
81,30000;5,41997;2153,70283;0,02832
81,40000;5,42666;2154,65855;0,02837
81,50000;5,43336;2155,87430;0,02842
81,60000;5,44002;2158,01764;0,02846
81,70000;5,44663;2159,76611;0,02851
81,80000;5,45333;2160,97869;0,02857
81,90000;5,46002;2162,79924;0,02862
82,00000;5,46666;2164,39720;0,02867
82,10000;5,47338;2166,16765;0,02872
82,20000;5,48005;2166,69403;0,02877
82,30000;5,48663;2168,32664;0,02882
82,40000;5,49333;2169,58001;0,02887
82,50000;5,49999;2171,14668;0,02892
82,60000;5,50666;2173,04863;0,02897
82,70000;5,51330;2173,72235;0,02902
82,80000;5,51999;2175,18564;0,02907
82,90000;5,52669;2177,49495;0,02912
83,00000;5,53333;2178,32848;0,02917
83,10000;5,54002;2180,29320;0,02922
83,20000;5,54669;2180,66592;0,02927
83,30000;5,55330;2182,83739;0,02932
83,40000;5,55999;2183,92797;0,02938
83,50000;5,56669;2184,83657;0,02943
83,60000;5,57336;2186,26224;0,02949
83,70000;5,57997;2187,66928;0,02954
83,80000;5,58669;2188,86938;0,02959
83,90000;5,59336;2190,70856;0,02964
84,00000;5,59997;2192,45385;0,02969
84,10000;5,60669;2195,17685;0,02975
84,20000;5,61338;2194,98258;0,02980
84,30000;5,61997;2196,11693;0,02985
84,40000;5,62666;2197,67727;0,02990
84,50000;5,63336;2199,11877;0,02996
84,60000;5,64002;2199,60753;0,03001
84,70000;5,64663;2200,89220;0,03006
84,80000;5,65333;2202,70343;0,03011
84,90000;5,66002;2204,73073;0,03017
85,00000;5,66663;2205,15374;0,03022
85,10000;5,67336;2207,00242;0,03027
85,20000;5,68002;2207,39730;0,03033
85,30000;5,68663;2209,23033;0,03038
85,40000;5,69330;2210,18288;0,03044
85,50000;5,69999;2212,04720;0,03049
85,60000;5,70666;2213,34137;0,03054
85,70000;5,71330;2214,47255;0,03060
85,80000;5,71996;2215,28728;0,03065
85,90000;5,72666;2216,82265;0,03070
86,00000;5,73327;2217,96948;0,03076
86,10000;5,74002;2220,07204;0,03081
86,20000;5,74669;2220,62021;0,03086
86,30000;5,75333;2221,42562;0,03092
86,40000;5,76002;2223,05506;0,03097
86,50000;5,76669;2224,18308;0,03102
86,60000;5,77336;2225,18574;0,03108
86,70000;5,77999;2226,98115;0,03114
86,80000;5,78666;2227,72062;0,03119
86,90000;5,79336;2228,88626;0,03125
87,00000;5,79999;2230,68167;0,03130
87,10000;5,80669;2231,88810;0,03136
87,20000;5,81336;2232,54301;0,03141
87,30000;5,81997;2234,02511;0,03146
87,40000;5,82666;2234,68319;0,03152
87,50000;5,83336;2235,83002;0,03158
87,60000;5,84002;2237,46877;0,03163
87,70000;5,84666;2238,39935;0,03168
87,80000;5,85333;2240,03196;0,03174
87,90000;5,85999;2240,14781;0,03179
88,00000;5,86660;2241,53586;0,03185
88,10000;5,87333;2243,72000;0,03190
88,20000;5,88002;2243,86398;0,03196
88,30000;5,88663;2245,28983;0,03201
88,40000;5,89336;2246,46162;0,03207
88,50000;5,90008;2246,94423;0,03212
88,60000;5,90672;2248,04096;0,03218
88,70000;5,91330;2248,89629;0,03223
88,80000;5,91996;2250,42850;0,03229
88,90000;5,92666;2251,91694;0,03235
89,00000;5,93330;2253,12952;0,03240
89,10000;5,93999;2254,25754;0,03246
89,20000;5,94669;2254,63994;0,03251
89,30000;5,95330;2255,87450;0,03257
89,40000;5,95996;2256,09075;0,03262
89,50000;5,96669;2257,79843;0,03268
89,60000;5,97335;2259,53739;0,03274
89,70000;5,97996;2260,07961;0,03280
89,80000;5,98669;2260,77195;0,03285
89,90000;5,99338;2261,09158;0,03291
90,00000;5,99999;2263,10007;0,03296
90,10000;6,00669;2264,41938;0,03302
90,20000;6,01335;2264,93012;0,03308
90,30000;6,01996;2265,64761;0,03314
90,40000;6,02666;2266,47798;0,03320
90,50000;6,03335;2267,93811;0,03325
90,60000;6,04005;2268,49914;0,03331
90,70000;6,04666;2269,28554;0,03337
90,80000;6,05333;2270,58902;0,03343
90,90000;6,06002;2272,12440;0,03348
91,00000;6,06663;2272,42522;0,03354
91,10000;6,07333;2273,99506;0,03360
91,20000;6,08002;2274,39310;0,03366
91,30000;6,08666;2275,53360;0,03372
91,40000;6,09335;2276,20732;0,03378
91,50000;6,10005;2276,84341;0,03383
91,60000;6,10669;2277,39178;0,03389
91,70000;6,11330;2279,14024;0,03395
91,80000;6,11999;2279,51296;0,03401
91,90000;6,12666;2280,23380;0,03407
92,00000;6,13330;2281,53411;0,03413
92,10000;6,14002;2282,53361;0,03419
92,20000;6,14669;2282,92216;0,03425
92,30000;6,15330;2283,48300;0,03430
92,40000;6,15996;2284,79914;0,03437
92,50000;6,16666;2286,24362;0,03442
92,60000;6,17335;2286,72940;0,03448
92,70000;6,17999;2286,95497;0,03454
92,80000;6,18672;2287,72890;0,03460
92,90000;6,19338;2288,63135;0,03466
93,00000;6,19999;2289,75937;0,03472
93,10000;6,20666;2290,18871;0,03478
93,20000;6,21333;2291,11928;0,03484
93,30000;6,21994;2291,64567;0,03490
93,40000;6,22666;2292,38197;0,03496
93,50000;6,23335;2292,97746;0,03502
93,60000;6,24002;2294,08666;0,03508
93,70000;6,24663;2295,35252;0,03514
93,80000;6,25333;2295,67531;0,03520
93,90000;6,26002;2296,96613;0,03526
94,00000;6,26663;2296,54312;0,03532
94,10000;6,27335;2298,28861;0,03538
94,20000;6,28002;2297,70262;0,03544
94,30000;6,28666;2298,90589;0,03550
94,40000;6,29333;2299,87409;0,03557
94,50000;6,30002;2300,56960;0,03563
94,60000;6,30669;2301,28728;0,03569
94,70000;6,31330;2302,04873;0,03575
94,80000;6,31999;2302,27113;0,03581
94,90000;6,32672;2303,51500;0,03587
95,00000;6,33333;2304,13228;0,03593
95,10000;6,34002;2305,07869;0,03600
95,20000;6,34669;2305,50785;0,03606
95,30000;6,35330;2306,05323;0,03612
95,40000;6,35996;2306,43228;0,03618
95,50000;6,36669;2306,77072;0,03625
95,60000;6,37335;2307,49454;0,03631
95,70000;6,38002;2308,36570;0,03637
95,80000;6,38669;2308,61623;0,03644
95,90000;6,39338;2308,58810;0,03650
96,00000;6,39999;2310,79720;0,03656
96,10000;6,40666;2311,36121;0,03662
96,20000;6,41333;2311,76224;0,03669
96,30000;6,41994;2312,23218;0,03675
96,40000;6,42663;2312,97798;0,03681
96,50000;6,43333;2313,46991;0,03688
96,60000;6,44002;2314,05590;0,03694
96,70000;6,44663;2313,52001;0,03700
96,80000;6,45333;2314,89874;0,03707
96,90000;6,46002;2315,35621;0,03713
97,00000;6,46666;2316,41233;0,03719
97,10000;6,47338;2316,27747;0,03726
97,20000;6,48005;2316,23370;0,03732
97,30000;6,48666;2318,08871;0,03738
97,40000;6,49333;2317,51837;0,03745
97,50000;6,49999;2318,38003;0,03751
97,60000;6,50666;2319,64290;0,03757
97,70000;6,51327;2319,98432;0,03764
97,80000;6,51996;2319,69301;0,03770
97,90000;6,52666;2320,77390;0,03777
98,00000;6,53330;2320,88044;0,03784
98,10000;6,53999;2321,78289;0,03790
98,20000;6,54669;2322,53503;0,03797
98,30000;6,55327;2322,20292;0,03803
98,40000;6,55996;2323,04893;0,03810
98,50000;6,56669;2324,06091;0,03816
98,60000;6,57335;2323,61294;0,03822
98,70000;6,57999;2324,46827;0,03829
98,80000;6,58669;2324,62175;0,03836
98,90000;6,59338;2325,07307;0,03842
99,00000;6,59999;2325,17011;0,03849
99,10000;6,60672;2325,48974;0,03855
99,20000;6,61338;2325,70283;0,03862
99,30000;6,61996;2327,03462;0,03868
99,40000;6,62666;2326,40170;0,03875
99,50000;6,63335;2326,88729;0,03882
99,60000;6,64002;2327,91193;0,03889
99,70000;6,64663;2328,41335;0,03895
99,80000;6,65333;2328,09372;0,03902
99,90000;6,66002;2328,53554;0,03908
100,00000;6,66669;2329,64158;0,03915
100,10000;6,67338;2330,05211;0,03922
100,20000;6,68005;2330,03013;0,03928
100,30000;6,68666;2330,04894;0,03935
100,40000;6,69333;2330,51572;0,03941
100,50000;6,70002;2331,02962;0,03948
100,60000;6,70669;2331,58115;0,03955
100,70000;6,71330;2331,43382;0,03961
100,80000;6,71996;2331,69403;0,03968
100,90000;6,72666;2331,99485;0,03975
101,00000;6,73330;2331,95089;0,03982
101,10000;6,73999;2332,10754;0,03988
101,20000;6,74669;2333,37358;0,03995
101,30000;6,75333;2333,56468;0,04002
101,40000;6,76002;2333,05693;0,04009
101,50000;6,76672;2332,94424;0,04015
101,60000;6,77335;2333,60846;0,04022
101,70000;6,77996;2334,84935;0,04029
101,80000;6,78666;2334,83054;0,04036
101,90000;6,79335;2334,17563;0,04043
102,00000;6,79996;2334,42634;0,04049
102,10000;6,80666;2334,93075;0,04056
102,20000;6,81333;2334,70518;0,04063
102,30000;6,81994;2334,76479;0,04070
102,40000;6,82663;2335,19711;0,04077
102,50000;6,83333;2336,12470;0,04084
102,60000;6,83999;2336,05262;0,04091
102,70000;6,84663;2336,92359;0,04098
102,80000;6,85335;2336,39106;0,04105
102,90000;6,86005;2336,70119;0,04112
103,00000;6,86666;2337,12420;0,04119
103,10000;6,87335;2337,76662;0,04126
103,20000;6,88002;2337,12420;0,04133
103,30000;6,88666;2337,67573;0,04140
103,40000;6,89335;2337,63177;0,04147
103,50000;6,90005;2337,68821;0,04154
103,60000;6,90669;2337,57850;0,04161
103,70000;6,91330;2338,44332;0,04168
103,80000;6,91999;2338,16449;0,04175
103,90000;6,92666;2338,14251;0,04182
104,00000;6,93327;2338,08625;0,04189
104,10000;6,93999;2338,76929;0,04196
104,20000;6,94669;2338,93227;0,04203
104,30000;6,95333;2338,04546;0,04210
104,40000;6,95999;2339,41153;0,04217
104,50000;6,96669;2339,85651;0,04224
104,60000;6,97335;2339,43667;0,04232
104,70000;6,97996;2340,02583;0,04239
104,80000;6,98669;2339,34261;0,04246
104,90000;6,99338;2339,32696;0,04253
105,00000;6,99996;2339,62778;0,04261
105,10000;7,00663;2339,46797;0,04267
105,20000;7,01333;2339,80007;0,04274
105,30001;7,01993;2340,08208;0,04281
105,40001;7,02660;2339,85968;0,04289
105,50001;7,03335;2339,42419;0,04296
105,60001;7,04005;2340,71203;0,04303
105,70001;7,04669;2340,12604;0,04310
105,80001;7,05335;2340,56152;0,04317
105,90001;7,06005;2339,54005;0,04325
106,00001;7,06666;2340,50825;0,04332
106,10001;7,07335;2341,04414;0,04339
106,20001;7,08002;2340,43933;0,04347
106,30001;7,08666;2340,17614;0,04354
106,40001;7,09335;2341,22276;0,04361
106,50001;7,10002;2340,48013;0,04368
106,60001;7,10669;2340,70253;0,04375
106,70001;7,11330;2340,80292;0,04382
106,80001;7,11996;2340,59598;0,04390
106,90001;7,12666;2340,33912;0,04397
107,00001;7,13333;2340,67123;0,04404
107,10001;7,14005;2340,96572;0,04412
107,20001;7,14669;2341,15701;0,04419
107,30001;7,15330;2341,35129;0,04426
107,40001;7,15996;2340,51142;0,04434
107,50001;7,16669;2340,47063;0,04441
107,60001;7,17335;2341,07543;0,04448
107,70001;7,18002;2340,61480;0,04455
107,80001;7,18672;2340,61796;0,04463
107,90001;7,19338;2340,40804;0,04470
108,00001;7,19996;2340,79342;0,04477
108,10001;7,20666;2340,81540;0,04484
108,20001;7,21332;2340,37992;0,04491
108,30001;7,21991;2340,34844;0,04498
108,40001;7,22663;2340,23575;0,04505
108,50001;7,23335;2340,19812;0,04513
108,60001;7,24005;2340,90947;0,04520
108,70001;7,24666;2341,08176;0,04527
108,80001;7,25332;2340,27635;0,04535
108,90001;7,25999;2340,53656;0,04543
109,00001;7,26660;2340,36110;0,04550
109,10001;7,27333;2340,63361;0,04558
109,20001;7,28002;2340,15118;0,04565
109,30001;7,28663;2340,78411;0,04573
109,40001;7,29333;2340,20427;0,04580
109,50001;7,30002;2339,55886;0,04588
109,60001;7,30666;2339,75947;0,04595
109,70001;7,31330;2339,89730;0,04602
109,80001;7,32002;2339,51509;0,04610
109,90001;7,32672;2338,99485;0,04618
110,00001;7,33335;2339,37092;0,04625
110,10001;7,34005;2339,42103;0,04633
110,20001;7,34672;2339,50242;0,04640
110,30001;7,35330;2338,59383;0,04648
110,40001;7,35996;2339,45865;0,04655
110,50001;7,36669;2338,96971;0,04663
110,60001;7,37335;2339,32696;0,04671
110,70001;7,37999;2338,72216;0,04678
110,80001;7,38669;2338,57501;0,04686
110,90001;7,39335;2338,31182;0,04694
111,00001;7,39996;2338,78810;0,04701
111,10001;7,40666;2338,28351;0,04709
111,20001;7,41333;2338,28351;0,04717
111,30001;7,41996;2338,56868;0,04724
111,40001;7,42666;2338,30549;0,04732
111,50001;7,43335;2337,48760;0,04739
111,60001;7,44002;2337,31531;0,04747
111,70001;7,44666;2338,00784;0,04755
111,80001;7,45333;2337,52839;0,04763
111,90001;7,46002;2337,32164;0,04770
112,00001;7,46669;2337,16182;0,04778
112,10001;7,47338;2337,46879;0,04785
112,20001;7,48002;2337,42185;0,04793
112,30001;7,48663;2336,93924;0,04801
112,40001;7,49333;2336,61663;0,04808
112,50001;7,50002;2336,65425;0,04816
112,60001;7,50666;2336,61979;0,04824
112,70001;7,51330;2335,97104;0,04831
112,80001;7,51999;2336,04945;0,04839
112,90001;7,52669;2336,22491;0,04847
113,00001;7,53332;2335,15333;0,04855
113,10001;7,54002;2335,26919;0,04862
113,20001;7,54669;2335,33196;0,04870
113,30001;7,55330;2335,18146;0,04878
113,40001;7,55999;2334,70201;0,04885
113,50001;7,56671;2334,40436;0,04893
113,60001;7,57335;2334,18513;0,04901
113,70001;7,57996;2334,68320;0,04909
113,80001;7,58669;2334,50457;0,04916
113,90001;7,59335;2333,43616;0,04924
114,00001;7,59996;2333,66173;0,04932
114,10001;7,60669;2333,54587;0,04940
114,20001;7,61338;2333,98136;0,04947
114,30001;7,61999;2333,56785;0,04955
114,40001;7,62666;2332,81255;0,04963
114,50001;7,63335;2332,56500;0,04971
114,60001;7,64002;2333,21059;0,04979
114,70001;7,64663;2331,69086;0,04986
114,80001;7,65332;2331,58432;0,04994
114,90001;7,66002;2331,80989;0,05002
115,00001;7,66666;2331,81939;0,05010
115,10001;7,67333;2331,47144;0,05018
115,20001;7,68002;2331,37123;0,05026
115,30001;7,68663;2331,23656;0,05033
115,40001;7,69332;2331,42134;0,05041
115,50001;7,70002;2330,53155;0,05049
115,60001;7,70669;2330,88247;0,05057
115,70001;7,71332;2330,39986;0,05064
115,80001;7,71999;2330,05527;0,05072
115,84201;7,72281;2329,89229;0,05076
115,94201;7,72945;2330,18994;0,05084
115,95001;7,72999;2330,05527;0,05084
116,05001;7,73654;2330,13984;0,05092
116,15001;7,74324;2329,07757;0,05100
116,25001;7,74988;2328,90211;0,05108
116,35001;7,75652;2328,79873;0,05115
116,45001;7,76321;2328,47277;0,05124
116,55001;7,76988;2328,39454;0,05131
116,65001;7,77652;2328,52604;0,05140
116,75001;7,78318;2327,83668;0,05147
116,85001;7,78985;2327,76161;0,05155
116,95001;7,79652;2327,38871;0,05163
117,05001;7,80318;2327,70834;0,05171
117,15001;7,80988;2327,02196;0,05179
117,25001;7,81654;2326,91243;0,05187
117,35001;7,82315;2325,94423;0,05195
117,45001;7,82988;2326,17911;0,05203
117,55001;7,83657;2326,53953;0,05211
117,65001;7,84318;2325,05109;0,05219
117,75001;7,84985;2325,12318;0,05227
117,85001;7,85654;2324,35558;0,05235
117,95001;7,86318;2325,06674;0,05243
118,05001;7,86985;2324,59679;0,05251
118,15001;7,87654;2324,69384;0,05259
118,25001;7,88321;2323,89495;0,05267
118,35001;7,88985;2323,57215;0,05275
118,45001;7,89657;2322,82318;0,05283
118,55001;7,90327;2323,66920;0,05291
118,65001;7,90985;2322,97052;0,05299
118,75001;7,91651;2322,07123;0,05307
118,85001;7,92321;2321,91142;0,05315
118,95001;7,92985;2322,42849;0,05323
119,05001;7,93651;2322,39403;0,05331
119,15001;7,94321;2321,78923;0,05339
119,25001;7,94988;2320,72379;0,05347
119,35001;7,95649;2320,75527;0,05355
119,45001;7,96321;2320,72379;0,05363
119,55001;7,96990;2320,99965;0,05371
119,65001;7,97649;2320,07522;0,05379
119,75001;7,98318;2320,38237;0,05387
119,85001;7,98990;2319,79955;0,05395
119,95001;7,99657;2319,58013;0,05403
120,05001;8,00321;2319,30129;0,05411
120,15001;8,00988;2319,43596;0,05419
120,25001;8,01654;2318,86264;0,05427
120,35001;8,02315;2318,66520;0,05435
120,45001;8,02988;2318,02911;0,05443
120,55001;8,03660;2317,50589;0,05452
120,65001;8,04321;2317,37737;0,05460
120,75001;8,04988;2317,34607;0,05468
120,85001;8,05654;2316,28064;0,05476
120,95001;8,06318;2316,49373;0,05484
121,05001;8,06982;2316,77573;0,05492
121,15001;8,07651;2315,76357;0,05500
121,25001;8,08321;2315,03975;0,05508
121,35001;8,08985;2315,45344;0,05517
121,45001;8,09654;2315,03677;0,05525
121,55001;8,10324;2315,28431;0,05533
121,65001;8,10985;2314,35038;0,05541
121,75001;8,11651;2313,94321;0,05549
121,85001;8,12318;2313,67685;0,05557
121,95001;8,12985;2313,51070;0,05565
122,05001;8,13651;2313,67368;0,05573
122,15001;8,14321;2312,30129;0,05582
122,25001;8,14988;2312,15395;0,05590
122,35001;8,15649;2312,47358;0,05597
122,45001;8,16321;2311,82184;0,05606
122,55001;8,16991;2311,98166;0,05614
122,65001;8,17652;2311,29229;0,05622
122,75001;8,18324;2311,36121;0,05630
122,85001;8,18993;2310,63422;0,05638
122,95001;8,19654;2310,13279;0,05647
123,05001;8,20318;2310,40549;0,05655
123,15001;8,20985;2309,91989;0,05663
123,25001;8,21651;2309,82266;0,05671
123,35001;8,22312;2308,89823;0,05678
123,45001;8,22988;2309,18340;0,05687
123,55001;8,23657;2308,84813;0,05695
123,65001;8,24318;2307,87676;0,05703
123,75001;8,24982;2307,72644;0,05711
123,85001;8,25651;2307,75457;0,05719
123,95001;8,26315;2308,09301;0,05728
124,05001;8,26985;2307,33790;0,05735
124,15001;8,27657;2307,75774;0,05744
124,25001;8,28324;2306,84597;0,05752
124,35001;8,28985;2307,06520;0,05760
124,45001;8,29654;2306,02492;0,05769
124,55001;8,30324;2305,89639;0,05777
124,65001;8,30985;2305,22286;0,05785
124,75001;8,31651;2305,61756;0,05793
124,85001;8,32324;2304,73094;0,05802
124,95001;8,32990;2304,17941;0,05810
125,05001;8,33654;2304,17624;0,05818
125,15001;8,34324;2304,00711;0,05826
125,25001;8,34988;2303,28012;0,05835
125,35001;8,35646;2302,86326;0,05843
125,45001;8,36318;2302,66284;0,05851
125,55001;8,36988;2303,27696;0,05860
125,65001;8,37651;2302,39965;0,05868
125,75001;8,38318;2302,00160;0,05876
125,85001;8,38988;2301,71029;0,05885
125,95001;8,39651;2302,16142;0,05893
126,05001;8,40318;2301,51918;0,05901
126,15001;8,40985;2301,06469;0,05909
126,25001;8,41651;2300,64485;0,05917
126,35001;8,42315;2300,03390;0,05926
126,45001;8,42988;2300,27828;0,05934
126,55001;8,43657;2299,42594;0,05942
126,65001;8,44321;2299,39464;0,05951
126,75001;8,44988;2299,35069;0,05959
126,85001;8,45654;2298,48586;0,05967
126,95001;8,46321;2298,41694;0,05975
127,05001;8,46990;2298,42961;0,05984
127,15001;8,47660;2297,85610;0,05992
127,25001;8,48327;2297,08850;0,06001
127,35001;8,48985;2297,21069;0,06009
127,45001;8,49654;2297,06969;0,06017
127,55001;8,50318;2297,71510;0,06026
127,65001;8,50979;2296,41795;0,06034
127,75001;8,51646;2296,19853;0,06042
127,85001;8,52318;2295,85394;0,06051
127,95001;8,52982;2295,06101;0,06059
128,05001;8,53651;2294,34986;0,06068
128,15001;8,54321;2294,41877;0,06076
128,25001;8,54988;2293,57593;0,06085
128,35001;8,55649;2293,74506;0,06093
128,45001;8,56321;2293,98012;0,06101
128,55001;8,56993;2293,50384;0,06110
128,65001;8,57654;2292,93033;0,06118
128,75001;8,58324;2293,04936;0,06126
128,85001;8,58990;2292,60456;0,06135
128,95001;8,59654;2291,94015;0,06143
129,05001;8,60321;2292,33503;0,06152
129,15001;8,60990;2291,69261;0,06160
129,25001;8,61657;2291,52665;0,06169
129,35001;8,62315;2290,48636;0,06177
129,45001;8,62988;2290,42992;0,06185
129,55001;8,63657;2290,58024;0,06193
129,65001;8,64315;2290,18237;0,06202
129,75001;8,64982;2290,17287;0,06210
129,85001;8,65654;2289,30507;0,06219
129,95001;8,66321;2288,83494;0,06227
130,05001;8,66988;2289,31122;0,06236
130,15001;8,67657;2288,50283;0,06244
130,25001;8,68321;2287,67879;0,06253
130,35001;8,68985;2288,31489;0,06261
130,45001;8,69654;2287,88871;0,06270
130,55001;8,70324;2287,77900;0,06278
130,65001;8,70985;2287,50017;0,06287
130,75001;8,71651;2287,31837;0,06295
130,85001;8,72318;2287,20866;0,06304
130,95001;8,72985;2286,66663;0,06312
131,05001;8,73651;2286,10262;0,06321
131,15001;8,74321;2285,33503;0,06329
131,25001;8,74988;2285,67030;0,06338
131,35001;8,75651;2284,97777;0,06346
131,45001;8,76324;2284,72073;0,06354
131,55001;8,76990;2285,02788;0,06363
131,65001;8,77651;2284,40743;0,06371
131,75001;8,78318;2283,68361;0,06380
131,85001;8,78988;2283,88421;0,06389
131,95001;8,79651;2283,05999;0,06397
132,05001;8,80318;2283,58023;0,06405
132,15001;8,80985;2282,75917;0,06414
132,25001;8,81651;2282,39577;0,06422
132,35001;8,82315;2281,94147;0,06431
132,45001;8,82985;2281,79730;0,06440
132,55001;8,83654;2281,88187;0,06448
132,65001;8,84318;2281,86939;0,06457
132,75001;8,84988;2280,64116;0,06465
132,85001;8,85657;2280,24945;0,06474
132,95001;8,86324;2279,87021;0,06482
133,05001;8,86988;2279,61335;0,06491
133,15001;8,87657;2279,44106;0,06499
133,25001;8,88324;2279,05549;0,06508
133,35001;8,88988;2278,88636;0,06516
133,45001;8,89657;2278,39760;0,06525
133,55001;8,90324;2278,89884;0,06533
133,65001;8,90982;2277,90866;0,06542
133,67401;8,91141;1953,10097;0,07121
133,67801;8,91167;1702,45823;0,07608
133,68201;8,91196;1428,64389;0,08092
133,68401;8,91207;1292,00462;0,08308
