Text Inputs : Specimen label;"1"
Dimension : Length;50,00000;mm
Dimension : Final length;100,00000;mm
Test : Rate 1;4,00000;mm/min
General : Unique Identifier;"{0070E11C-14B7-4CCD-AC62-839404F5C431}"

Time;Extension;Load;Strain 1
(sec);(mm);(N);(mm/mm)
0,00000;0,00000;-2,25735;0,00001
0,10000;0,00405;-3,01563;0,00001
0,20000;0,01020;-2,89343;0,00001
0,30000;0,01715;2,80000;0,00001
0,40000;0,02442;10,70877;0,00006
0,50000;0,03177;18,17886;0,00011
0,60000;0,03900;24,64937;0,00016
0,70000;0,04601;30,35221;0,00020
0,80000;0,05293;31,65258;0,00023
0,90000;0,05980;33,07202;0,00024
1,00000;0,06652;34,04339;0,00026
1,10000;0,07328;34,90507;0,00027
1,20000;0,08000;35,46596;0,00028
1,30000;0,08664;36,36213;0,00029
1,40000;0,09336;36,72560;0,00030
1,50000;0,10003;37,60923;0,00031
1,60000;0,10670;40,23816;0,00032
1,70000;0,11330;40,86485;0,00033
1,80000;0,11997;40,14730;0,00034
1,90000;0,12664;39,89349;0,00034
2,00000;0,13330;39,99376;0,00035
2,10000;0,14003;40,66118;0,00035
2,20000;0,14667;41,40381;0,00036
2,30000;0,15328;41,56048;0,00036
2,40000;0,15997;42,23103;0,00037
2,50000;0,16669;41,74535;0,00037
2,60000;0,17333;42,54123;0,00038
2,70000;0,18003;43,91681;0,00038
2,80000;0,18672;43,18046;0,00039
2,90000;0,19339;44,42756;0,00040
3,00000;0,20000;45,17959;0,00041
3,10000;0,20667;45,96921;0,00041
3,20000;0,21333;45,47413;0,00041
3,30000;0,21991;46,37655;0,00041
3,40000;0,22664;46,48622;0,00042
3,50000;0,23336;46,55829;0,00042
3,60000;0,24000;47,86806;0,00042
3,70000;0,24664;46,71497;0,00042
3,80000;0,25333;46,99697;0,00042
3,90000;0,26000;47,80852;0,00043
4,00000;0,26661;47,63305;0,00043
4,10000;0,27336;48,42581;0,00043
4,20000;0,28003;48,38194;0,00043
4,30000;0,28669;49,35331;0,00043
4,40000;0,29333;49,24990;0,00044
4,50000;0,30000;49,69798;0,00044
4,60000;0,30667;50,26200;0,00044
4,70000;0,31328;50,50640;0,00044
4,80000;0,32000;50,91062;0,00044
4,90000;0,32672;51,85064;0,00045
5,00000;0,33333;52,42407;0,00045
5,10000;0,34003;53,57716;0,00046
5,20000;0,34669;53,60537;0,00046
5,30000;0,35330;53,86231;0,00046
5,40000;0,35997;54,63000;0,00047
5,50000;0,36667;55,99303;0,00047
5,60000;0,37336;56,99886;0,00048
5,70000;0,38003;58,64078;0,00049
5,80000;0,38669;59,40533;0,00049
5,90000;0,39336;60,85298;0,00050
6,00000;0,40000;62,48236;0,00051
6,10000;0,40667;65,82886;0,00052
6,20000;0,41333;67,54597;0,00054
6,30000;0,41994;72,81012;0,00057
6,40000;0,42664;77,19379;0,00060
6,50000;0,43333;81,90960;0,00063
6,60000;0,44000;87,82864;0,00066
6,70000;0,44664;92,68231;0,00069
6,80000;0,45330;97,06598;0,00073
6,90000;0,46000;101,96039;0,00076
7,00000;0,46667;107,16501;0,00079
7,10000;0,47339;112,08762;0,00082
7,20000;0,48006;115,96680;0,00085
7,30000;0,48664;120,21259;0,00089
7,40000;0,49330;125,79323;0,00092
7,50000;0,50000;129,31519;0,00095
7,60000;0,50667;134,09053;0,00098
7,70000;0,51330;138,53373;0,00102
7,80000;0,51997;143,50648;0,00105
7,90000;0,52667;149,17171;0,00108
8,00000;0,53328;153,72458;0,00112
8,10000;0,54000;158,91353;0,00116
8,20000;0,54669;164,10562;0,00119
8,30000;0,55328;168,67102;0,00123
8,40000;0,56000;174,32371;0,00127
8,50000;0,56672;179,37167;0,00131
8,60000;0,57336;183,77099;0,00135
8,70000;0,58000;188,59648;0,00138
8,80000;0,58669;193,34361;0,00142
8,90000;0,59336;197,92153;0,00146
9,00000;0,59997;202,80969;0,00150
9,10000;0,60669;208,95121;0,00153
9,20000;0,61336;212,73950;0,00157
9,30000;0,61997;218,00054;0,00161
9,40000;0,62664;222,66307;0,00165
9,50000;0,63336;227,32560;0,00168
9,60000;0,64000;232,33283;0,00172
9,70000;0,64661;236,65696;0,00175
9,80000;0,65330;240,32618;0,00179
9,90000;0,66000;245,61854;0,00183
10,00000;0,66667;250,37194;0,00186
10,10000;0,67336;255,51703;0,00190
10,20000;0,68003;259,98843;0,00193
10,30000;0,68667;264,28748;0,00197
10,40000;0,69333;269,64566;0,00201
10,50000;0,70000;273,91652;0,00205
10,60000;0,70669;279,44387;0,00209
10,70000;0,71330;284,27248;0,00213
10,80000;0,71997;289,55857;0,00217
10,90000;0,72664;294,68173;0,00221
11,00000;0,73328;299,61688;0,00225
11,10000;0,74003;305,24763;0,00230
11,20000;0,74669;309,05162;0,00234
11,30000;0,75333;314,65103;0,00238
11,40000;0,76003;320,65783;0,00242
11,50000;0,76672;324,28007;0,00246
11,60000;0,77336;329,73222;0,00251
11,70000;0,77997;335,46640;0,00255
11,80000;0,78667;339,95658;0,00259
11,90000;0,79336;344,19612;0,00263
12,00000;0,79997;349,07800;0,00268
12,10000;0,80667;354,44242;0,00272
12,20000;0,81333;358,42813;0,00276
12,30000;0,81994;363,92417;0,00280
12,40000;0,82664;369,28544;0,00284
12,50000;0,83333;373,21164;0,00288
12,60000;0,84003;378,74526;0,00292
12,70000;0,84667;382,19830;0,00297
12,80000;0,85336;387,60973;0,00301
12,90000;0,86003;391,99963;0,00305
13,00000;0,86664;396,76870;0,00309
13,10000;0,87330;401,86993;0,00313
13,20000;0,88000;406,04994;0,00317
13,30000;0,88664;411,27959;0,00321
13,40000;0,89333;416,41528;0,00325
13,50000;0,90003;420,11272;0,00329
13,60000;0,90667;425,06983;0,00333
13,70000;0,91330;429,04927;0,00337
13,80000;0,91997;433,28567;0,00341
13,90000;0,92667;438,14871;0,00345
14,00000;0,93328;442,69222;0,00349
14,10000;0,94003;447,16047;0,00353
14,20000;0,94672;450,92059;0,00357
14,30000;0,95333;454,48956;0,00361
14,40000;0,96003;459,80383;0,00365
14,50000;0,96672;463,01247;0,00369
14,60000;0,97336;467,61231;0,00373
14,70000;0,97997;471,88005;0,00376
14,80000;0,98667;475,82816;0,00380
14,90000;0,99336;479,44100;0,00384
15,00000;0,99994;483,40480;0,00388
15,10000;1,00664;487,76967;0,00391
15,20000;1,01330;491,42325;0,00395
15,30000;1,01991;495,76303;0,00399
15,40000;1,02661;499,95556;0,00403
15,50000;1,03336;503,17044;0,00407
15,60000;1,04006;507,01201;0,00410
15,70000;1,04672;510,92883;0,00414
15,80000;1,05336;515,00853;0,00418
15,90000;1,06006;519,36712;0,00422
16,00000;1,06667;522,78568;0,00426
16,10000;1,07336;527,09728;0,00429
16,20000;1,08003;530,57852;0,00433
16,30000;1,08667;533,87177;0,00437
16,40000;1,09336;538,28675;0,00441
16,50000;1,10003;543,25638;0,00445
16,60000;1,10669;547,73088;0,00448
16,70000;1,11330;550,73272;0,00452
16,80000;1,11994;554,84693;0,00456
16,90000;1,12664;560,38680;0,00460
17,00000;1,13330;562,97500;0,00464
17,10000;1,14000;568,37392;0,00467
17,20000;1,14669;571,08430;0,00471
17,30000;1,15328;575,00736;0,00475
17,40000;1,15994;580,06472;0,00479
17,50000;1,16667;582,59028;0,00482
17,60000;1,17336;586,20935;0,00486
17,70000;1,18003;590,74345;0,00489
17,80000;1,18675;593,51339;0,00492
17,90000;1,19342;596,79407;0,00496
18,00000;1,20000;599,78021;0,00499
18,10000;1,20669;604,29862;0,00502
18,20000;1,21333;606,46068;0,00506
18,30000;1,21994;611,07622;0,00509
18,40000;1,22664;615,40976;0,00512
18,50000;1,23336;616,72893;0,00516
18,60000;1,24003;620,68645;0,00519
18,70000;1,24667;622,93625;0,00522
18,80000;1,25333;626,96585;0,00525
18,90000;1,26000;629,73890;0,00528
19,00000;1,26661;633,04780;0,00531
19,10000;1,27333;635,88670;0,00534
19,20000;1,28003;638,96687;0,00538
19,30000;1,28664;641,74621;0,00541
19,40000;1,29330;646,06718;0,00544
19,50000;1,30003;648,38906;0,00547
19,60000;1,30669;651,93921;0,00550
19,70000;1,31330;654,32377;0,00553
19,80000;1,32003;657,39453;0,00556
19,90000;1,32672;660,68461;0,00559
20,00000;1,33336;663,58619;0,00563
20,10000;1,34006;667,30240;0,00566
20,20000;1,34669;668,89734;0,00569
20,30000;1,35330;672,45378;0,00572
20,40000;1,35997;675,87546;0,00575
20,50000;1,36667;678,20363;0,00578
20,60000;1,37336;682,43686;0,00581
20,70000;1,37997;684,87469;0,00584
20,80000;1,38667;687,35322;0,00587
20,90000;1,39336;690,52423;0,00590
21,00000;1,39994;693,83942;0,00593
21,10000;1,40664;697,30184;0,00597
21,20000;1,41333;698,93436;0,00600
21,30000;1,41994;702,54719;0,00603
21,40000;1,42669;705,45501;0,00606
21,50000;1,43336;708,33149;0,00609
21,60000;1,44003;711,54013;0,00612
21,70000;1,44667;714,18472;0,00615
21,80000;1,45333;716,61943;0,00618
21,90000;1,46003;720,56437;0,00621
22,00000;1,46667;722,73272;0,00624
22,10000;1,47339;726,37061;0,00627
22,20000;1,48003;729,15936;0,00630
22,30000;1,48664;732,02644;0,00633
22,40000;1,49330;734,62091;0,00636
22,50000;1,49997;737,56324;0,00639
22,60000;1,50664;741,34213;0,00642
22,70000;1,51327;743,77367;0,00645
22,80000;1,51997;746,92904;0,00648
22,90000;1,52666;748,94070;0,00651
23,00000;1,53330;752,37807;0,00654
23,10000;1,54003;755,34540;0,00657
23,20000;1,54669;758,65746;0,00660
23,30000;1,55330;760,96053;0,00663
23,40000;1,56000;764,21616;0,00666
23,50000;1,56669;767,18349;0,00669
23,60000;1,57336;770,04745;0,00672
23,70000;1,57997;773,29366;0,00675
23,80000;1,58669;775,84428;0,00678
23,90000;1,59336;779,54172;0,00681
24,00000;1,59997;781,58472;0,00684
24,10000;1,60669;785,66130;0,00687
24,20000;1,61336;787,68544;0,00690
24,30000;1,61997;790,68420;0,00693
24,40000;1,62666;793,15016;0,00696
24,50000;1,63336;796,45906;0,00700
24,60000;1,64000;799,62071;0,00702
24,70000;1,64664;802,12746;0,00705
24,80000;1,65333;805,02275;0,00708
24,90000;1,66003;808,28778;0,00711
25,00000;1,66666;811,07020;0,00714
25,10000;1,67336;813,63963;0,00717
25,20000;1,68003;816,59444;0,00720
25,30000;1,68664;819,27981;0,00723
25,40000;1,69333;821,83667;0,00726
25,50000;1,70000;824,97634;0,00729
25,60000;1,70669;827,51755;0,00732
25,70000;1,71330;830,07449;0,00735
25,80000;1,72000;833,48053;0,00738
25,90000;1,72666;836,64525;0,00741
26,00000;1,73330;838,68820;0,00744
26,10000;1,74000;842,44525;0,00747
26,20000;1,74669;844,25323;0,00750
26,30000;1,75330;847,61847;0,00753
26,40000;1,76000;850,13155;0,00756
26,50000;1,76669;853,55006;0,00759
26,60000;1,77336;856,27930;0,00762
26,70000;1,77997;858,28155;0,00765
26,80000;1,78666;860,87286;0,00768
26,90000;1,79333;863,58953;0,00771
27,00000;1,79997;867,38104;0,00774
27,10000;1,80666;871,15681;0,00777
27,20000;1,81336;872,66080;0,00780
27,30000;1,81994;874,96703;0,00783
27,40000;1,82666;877,92818;0,00786
27,50000;1,83336;880,38472;0,00789
27,60000;1,84003;883,62470;0,00792
27,70000;1,84666;886,05620;0,00795
27,80000;1,85336;889,30875;0,00798
27,90000;1,86003;892,77113;0,00801
28,00000;1,86664;894,78912;0,00804
28,10000;1,87333;898,84372;0,00807
28,20000;1,88003;900,83973;0,00810
28,30000;1,88664;903,03626;0,00813
28,40000;1,89336;905,33309;0,00816
28,50000;1,90008;909,36264;0,00819
28,60000;1,90669;911,45895;0,00822
28,70000;1,91330;914,14424;0,00825
28,80000;1,91997;916,75436;0,00828
28,90000;1,92664;919,81888;0,00831
29,00000;1,93327;922,54495;0,00834
29,10000;1,94003;926,48054;0,00837
29,20000;1,94669;927,56161;0,00840
29,30000;1,95330;931,07726;0,00843
29,40000;1,95997;934,02583;0,00846
29,50000;1,96669;936,22236;0,00849
29,60000;1,97336;939,18033;0,00852
29,70000;1,97997;942,68350;0,00855
29,80000;1,98669;945,36887;0,00858
29,90000;1,99336;948,03544;0,00861
30,00000;2,00000;950,49515;0,00864
30,10000;2,00666;954,20824;0,00867
30,20000;2,01333;955,88462;0,00870
30,30000;2,01994;958,50732;0,00873
30,40000;2,02664;961,67829;0,00876
30,50000;2,03336;963,92501;0,00879
30,60000;2,04005;966,64792;0,00882
30,70000;2,04666;969,64976;0,00885
30,80000;2,05333;972,99004;0,00888
30,90000;2,06003;975,96049;0,00891
31,00000;2,06664;977,77788;0,00894
31,10000;2,07333;981,01152;0,00897
31,20000;2,08003;983,91939;0,00900
31,30000;2,08666;986,51070;0,00903
31,40000;2,09336;988,51612;0,00906
31,50000;2,10003;991,66520;0,00909
31,60000;2,10669;994,72348;0,00912
31,70000;2,11330;997,19567;0,00915
31,80000;2,11997;1000,49833;0,00918
31,90000;2,12666;1003,08340;0,00921
32,00000;2,13330;1005,50866;0,00924
32,10000;2,14003;1009,28759;0,00928
32,20000;2,14669;1011,82256;0,00931
32,30000;2,15330;1014,70212;0,00934
32,40000;2,15997;1016,98013;0,00937
32,50000;2,16666;1019,77205;0,00940
32,60000;2,17336;1022,94618;0,00943
32,70000;2,18003;1025,65344;0,00946
32,80000;2,18675;1027,76224;0,00949
32,90000;2,19339;1030,77348;0,00952
33,00000;2,20000;1033,61234;0,00955
33,10000;2,20666;1036,65497;0,00958
33,20000;2,21333;1039,38729;0,00961
33,30000;2,21994;1041,48984;0,00965
33,40000;2,22664;1045,07441;0,00968
33,50000;2,23333;1047,64383;0,00971
33,60000;2,24000;1051,12512;0,00974
33,70000;2,24664;1052,92993;0,00977
33,80000;2,25330;1056,14802;0,00980
33,90000;2,26000;1058,73309;0,00984
34,00000;2,26661;1060,43136;0,00987
34,10000;2,27333;1065,30702;0,00990
34,20000;2,28003;1066,71704;0,00993
34,30000;2,28666;1070,10109;0,00996
34,40000;2,29336;1072,46684;0,00999
34,50000;2,30003;1075,16469;0,01002
34,60000;2,30669;1077,72788;0,01006
34,70000;2,31330;1080,82993;0,01009
34,80000;2,32000;1083,34608;0,01012
34,90000;2,32672;1086,57358;0,01015
35,00000;2,33333;1088,04312;0,01018
35,10000;2,34003;1092,64925;0,01021
35,20000;2,34669;1093,89322;0,01024
35,30000;2,35327;1096,59107;0,01027
35,40000;2,35997;1099,49578;0,01031
35,50000;2,36666;1101,83023;0,01034
35,60000;2,37336;1105,20180;0,01037
35,70000;2,38003;1108,04690;0,01040
35,80000;2,38669;1110,51919;0,01043
35,90000;2,39339;1112,87553;0,01046
36,00000;2,40000;1115,94005;0,01049
36,10000;2,40666;1119,06715;0,01052
36,20000;2,41333;1121,23862;0,01056
36,30000;2,41994;1123,58872;0,01059
36,40000;2,42664;1126,22706;0,01062
36,50000;2,43333;1129,24762;0,01065
36,60000;2,44003;1132,40620;0,01068
36,70000;2,44664;1135,02257;0,01071
36,80000;2,45333;1137,39148;0,01074
36,90000;2,46000;1140,91337;0,01077
37,00000;2,46666;1143,26663;0,01081
37,10000;2,47339;1146,83248;0,01084
37,20000;2,48005;1148,12972;0,01087
37,30000;2,48666;1150,92155;0,01090
37,40000;2,49333;1154,21480;0,01093
37,50000;2,50000;1156,82492;0,01096
37,60000;2,50666;1159,84557;0,01099
37,70000;2,51330;1161,41858;0,01102
37,80000;2,51997;1165,09404;0,01106
37,90000;2,52666;1167,29373;0,01109
38,00000;2,53330;1170,02297;0,01112
38,10000;2,54000;1173,68279;0,01115
38,20000;2,54669;1175,90120;0,01118
38,30000;2,55327;1179,09107;0,01122
38,40000;2,56000;1181,09016;0,01125
38,50000;2,56669;1183,94159;0,01128
38,60000;2,57336;1187,18473;0,01131
38,70000;2,58000;1190,42471;0,01134
38,80000;2,58669;1193,27297;0,01138
38,90000;2,59336;1195,44752;0,01141
39,00000;2,59997;1198,05457;0,01144
39,10000;2,60669;1200,94046;0,01148
39,20000;2,61336;1203,25917;0,01151
39,30000;2,61994;1206,51796;0,01154
39,40000;2,62664;1208,43556;0,01157
39,50000;2,63336;1211,91684;0,01160
39,60000;2,64003;1214,41102;0,01163
39,70000;2,64663;1217,12461;0,01167
39,80000;2,65333;1221,29517;0,01170
39,90000;2,66003;1223,50110;0,01173
40,00000;2,66666;1225,32165;0,01176
40,10000;2,67339;1228,33913;0,01180
40,20000;2,68005;1231,01817;0,01183
40,30000;2,68666;1235,04465;0,01186
40,40000;2,69333;1237,48248;0,01190
40,50000;2,70003;1239,77922;0,01193
40,60000;2,70669;1242,34241;0,01196
40,70000;2,71330;1244,90866;0,01199
40,80000;2,71994;1248,40243;0,01203
40,90000;2,72664;1250,56449;0,01206
41,00000;2,73327;1253,46296;0,01209
41,10000;2,74000;1256,78750;0,01212
41,20000;2,74669;1259,02472;0,01216
41,30000;2,75333;1261,48453;0,01219
41,40000;2,76003;1264,91869;0,01222
41,50000;2,76672;1266,35069;0,01226
41,60000;2,77336;1269,31490;0,01229
41,70000;2,77997;1272,43269;0,01232
41,80000;2,78666;1275,66634;0,01236
41,90000;2,79333;1278,14496;0,01239
42,00000;2,79997;1280,47308;0,01243
42,10000;2,80666;1283,47175;0,01246
42,20000;2,81333;1285,44895;0,01249
42,30000;2,81994;1288,83300;0,01253
42,40000;2,82663;1290,77891;0,01256
42,50000;2,83333;1294,80530;0,01259
42,60000;2,84003;1296,65406;0,01263
42,70000;2,84663;1299,70284;0,01266
42,80000;2,85333;1302,07492;0,01269
42,90000;2,86000;1304,84793;0,01272
43,00000;2,86661;1306,69670;0,01276
43,10000;2,87330;1310,65417;0,01279
43,20000;2,88003;1312,68464;0,01283
43,30000;2,88664;1316,01859;0,01286
43,40000;2,89336;1318,18065;0,01290
43,50000;2,90005;1320,06072;0,01293
43,60000;2,90669;1323,64230;0,01296
43,70000;2,91330;1325,82625;0,01300
43,80000;2,92000;1329,47983;0,01303
43,90000;2,92666;1331,38178;0,01306
44,00000;2,93330;1334,14865;0,01309
44,10000;2,94003;1337,34476;0,01313
44,20000;2,94669;1339,95488;0,01316
44,30000;2,95330;1342,32370;0,01319
44,40000;2,96000;1345,67022;0,01323
44,50000;2,96669;1348,06735;0,01326
44,60000;2,97336;1350,28576;0,01329
44,70000;2,97997;1352,92728;0,01333
44,80000;2,98666;1356,62779;0,01336
44,90000;2,99336;1358,64262;0,01340
45,00000;2,99994;1361,67267;0,01343
45,10000;3,00663;1364,43004;0,01346
45,20000;3,01333;1366,30386;0,01350
45,30000;3,01994;1369,44037;0,01353
45,40000;3,02663;1371,29854;0,01357
45,50000;3,03339;1375,00847;0,01360
45,60000;3,04008;1377,82227;0,01363
45,70000;3,04672;1380,07523;0,01367
45,80000;3,05336;1382,92043;0,01370
45,90000;3,06003;1385,34885;0,01374
46,00000;3,06666;1388,20019;0,01377
46,10000;3,07333;1391,10805;0,01381
46,20000;3,08002;1394,10673;0,01384
46,30000;3,08663;1396,28761;0,01388
46,40000;3,09330;1398,77554;0,01391
46,50000;3,10000;1401,92779;0,01395
46,60000;3,10666;1404,98290;0,01398
46,70000;3,11327;1406,94752;0,01402
46,80000;3,11994;1409,97125;0,01405
46,90000;3,12663;1413,26133;0,01409
47,00000;3,13330;1415,01920;0,01412
47,10000;3,14005;1417,06532;0,01416
47,20000;3,14672;1419,99824;0,01419
47,30000;3,15330;1423,31962;0,01423
47,40000;3,16000;1425,99558;0,01426
47,50000;3,16669;1428,92227;0,01430
47,60000;3,17336;1431,11562;0,01433
47,70000;3,18002;1433,58791;0,01436
47,80000;3,18672;1437,77104;0,01440
47,90000;3,19339;1439,80458;0,01444
48,00000;3,19997;1443,01327;0,01447
48,10000;3,20666;1445,71736;0,01451
48,20000;3,21330;1447,64753;0,01454
48,30000;3,21991;1449,69681;0,01457
48,40000;3,22661;1452,40724;0,01461
48,50000;3,23336;1456,33966;0,01465
48,60000;3,24002;1458,31378;0,01468
48,70000;3,24666;1460,76726;0,01472
48,80000;3,25333;1464,14824;0,01475
48,90000;3,26002;1466,68628;0,01479
49,00000;3,26663;1468,03679;0,01482
49,10000;3,27336;1471,67472;0,01486
49,20000;3,28002;1474,16573;0,01490
49,30000;3,28663;1476,50642;0,01493
49,40000;3,29330;1479,81215;0,01497
49,50000;3,30002;1482,35653;0,01501
49,60000;3,30666;1485,08577;0,01504
49,70000;3,31327;1486,61481;0,01508
49,80000;3,32000;1490,57554;0,01511
49,90000;3,32669;1492,60908;0,01515
50,00000;3,33336;1495,32575;0,01519
50,10000;3,34005;1497,85131;0,01522
50,20000;3,34672;1500,33925;0,01526
50,30000;3,35327;1502,56399;0,01529
50,40000;3,35997;1505,60969;0,01533
50,50000;3,36666;1509,24446;0,01536
50,60000;3,37333;1511,60704;0,01540
50,70000;3,37997;1513,26461;0,01544
50,80000;3,38666;1517,44466;0,01547
50,90000;3,39336;1518,96123;0,01551
51,00000;3,39997;1522,07892;0,01554
51,10000;3,40666;1524,71727;0,01558
51,20000;3,41333;1526,24333;0,01562
51,30000;3,41997;1529,90315;0,01565
51,40000;3,42666;1532,66052;0,01569
51,50000;3,43336;1534,72861;0,01573
51,60000;3,44002;1537,28863;0,01576
51,70000;3,44666;1539,66686;0,01580
51,80000;3,45333;1543,52728;0,01583
51,90000;3,46002;1544,89027;0,01587
52,00000;3,46666;1547,24661;0,01591
52,10000;3,47339;1550,53046;0,01594
52,20000;3,48002;1552,42616;0,01598
52,30000;3,48663;1555,42800;0,01602
52,40000;3,49330;1557,77493;0,01605
52,50000;3,49997;1560,51666;0,01609
52,60000;3,50663;1563,23649;0,01613
52,70000;3,51330;1565,54263;0,01617
52,80000;3,52000;1568,41595;0,01620
52,90000;3,52669;1571,18291;0,01624
53,00000;3,53333;1574,44794;0,01628
53,10000;3,54002;1576,50970;0,01631
53,20000;3,54669;1578,74692;0,01635
53,30000;3,55330;1580,82750;0,01639
53,40000;3,56000;1584,11767;0,01642
53,50000;3,56669;1587,31677;0,01646
53,60000;3,57336;1589,01513;0,01650
53,70000;3,57997;1592,14232;0,01653
53,80000;3,58669;1594,98435;0,01657
53,90000;3,59336;1596,82687;0,01661
54,00000;3,59994;1599,32729;0,01664
54,10000;3,60669;1602,88997;0,01668
54,20000;3,61336;1604,70102;0,01672
54,30000;3,61997;1608,12270;0,01676
54,40000;3,62666;1609,76462;0,01680
54,50000;3,63336;1612,76031;0,01683
54,60000;3,64002;1615,60532;0,01687
54,70000;3,64663;1617,80827;0,01690
54,80000;3,65333;1620,60317;0,01694
54,90000;3,66002;1623,26656;0,01698
55,00000;3,66666;1625,68875;0,01702
55,10000;3,67336;1628,31154;0,01706
55,20000;3,68002;1630,85572;0,01709
55,30000;3,68663;1633,68210;0,01713
55,40000;3,69330;1636,41144;0,01717
55,50000;3,70000;1638,41993;0,01720
55,60000;3,70669;1641,00174;0,01724
55,70000;3,71333;1644,34519;0,01728
55,80000;3,72000;1646,83945;0,01732
55,90000;3,72666;1648,99211;0,01736
56,00000;3,73330;1650,64335;0,01739
56,10000;3,74002;1654,02442;0,01743
56,20000;3,74669;1656,32106;0,01747
56,30000;3,75333;1659,17259;0,01751
56,40000;3,76000;1661,52585;0,01755
56,50000;3,76669;1664,30511;0,01758
56,60000;3,77336;1665,77473;0,01762
56,70000;3,78000;1668,99581;0,01766
56,80000;3,78666;1671,08588;0,01770
56,90000;3,79336;1673,72413;0,01774
57,00000;3,79997;1675,95837;0,01777
57,10000;3,80666;1679,24836;0,01781
57,20000;3,81333;1681,69867;0,01785
57,30000;3,81994;1683,71983;0,01788
57,40000;3,82663;1685,59365;0,01792
57,50000;3,83336;1689,01533;0,01796
57,60000;3,84002;1691,54704;0,01800
57,70000;3,84666;1693,44600;0,01804
57,80000;3,85336;1696,72985;0,01808
57,90000;3,86002;1699,11124;0,01812
58,00000;3,86663;1701,48015;0,01816
58,10000;3,87333;1703,96175;0,01820
58,20000;3,88002;1706,05183;0,01823
58,30000;3,88663;1708,03517;0,01827
58,40000;3,89336;1710,88967;0,01831
58,50000;3,90005;1714,33333;0,01835
58,60000;3,90669;1715,74969;0,01839
58,70000;3,91330;1718,53527;0,01843
58,80000;3,91997;1721,47136;0,01847
58,90000;3,92663;1723,21666;0,01851
59,00000;3,93327;1725,80797;0,01854
59,10000;3,94000;1728,44641;0,01858
59,20000;3,94669;1731,10981;0,01862
59,30000;3,95330;1732,94600;0,01866
59,40000;3,96000;1734,96064;0,01870
59,50000;3,96669;1738,29161;0,01874
59,60000;3,97336;1740,53814;0,01878
59,70000;3,97997;1742,48721;0,01882
59,80000;3,98669;1745,91839;0,01886
59,90000;3,99339;1747,21871;0,01889
60,00000;4,00002;1750,34590;0,01893
60,10000;4,00669;1752,26033;0,01897
60,20000;4,01336;1754,61993;0,01901
60,30000;4,01994;1757,43364;0,01905
60,40000;4,02663;1759,92474;0,01909
60,50000;4,03336;1762,71349;0,01914
60,60000;4,04005;1764,35858;0,01918
60,70000;4,04669;1767,08773;0,01922
60,80000;4,05333;1769,91411;0,01926
60,90000;4,06002;1772,37391;0,01930
61,00000;4,06663;1774,11288;0,01934
61,10000;4,07333;1776,65725;0,01938
61,20000;4,08002;1779,50542;0,01942
61,30000;4,08666;1781,23210;0,01946
61,40000;4,09336;1784,19929;0,01949
61,50000;4,10005;1786,52443;0,01954
61,60000;4,10669;1788,32300;0,01957
61,70000;4,11330;1790,41289;0,01962
61,80000;4,11997;1793,17351;0,01965
61,90000;4,12666;1796,02187;0,01970
62,00000;4,13330;1798,12126;0,01974
62,10000;4,14002;1801,29223;0,01978
62,20000;4,14666;1803,74254;0,01982
62,30000;4,15330;1806,15224;0,01986
62,40000;4,15997;1807,56524;0,01990
62,50000;4,16669;1811,12178;0,01994
62,60000;4,17336;1812,92966;0,01998
62,70000;4,18002;1815,36749;0,02002
62,80000;4,18672;1817,10981;0,02006
62,90000;4,19339;1819,19970;0,02010
63,00000;4,20000;1821,77220;0,02014
63,10000;4,20666;1825,17525;0,02018
63,20000;4,21333;1826,59775;0,02022
63,30000;4,21994;1828,81299;0,02026
63,40000;4,22663;1831,23834;0,02031
63,50000;4,23336;1833,78905;0,02035
63,60000;4,24002;1835,89458;0,02039
63,70000;4,24663;1838,72096;0,02043
63,80000;4,25333;1841,14631;0,02047
63,90000;4,26002;1843,17678;0,02051
64,00000;4,26663;1845,70849;0,02055
64,10000;4,27336;1848,94223;0,02060
64,20000;4,28005;1850,32710;0,02064
64,30000;4,28669;1852,87464;0,02068
64,40000;4,29333;1854,95205;0,02072
64,50000;4,29999;1858,05727;0,02076
64,60000;4,30666;1859,57700;0,02080
64,70000;4,31330;1861,75164;0,02084
64,80000;4,31999;1864,69387;0,02088
64,90000;4,32672;1867,05347;0,02093
65,00000;4,33333;1869,15901;0,02097
65,10000;4,34002;1871,63763;0,02101
65,20000;4,34669;1873,75899;0,02105
65,30000;4,35330;1875,82709;0,02109
65,40000;4,35997;1878,06431;0,02113
65,50000;4,36669;1881,23845;0,02118
65,60000;4,37336;1883,10593;0,02122
65,70000;4,38002;1885,34632;0,02126
65,80000;4,38669;1886,68426;0,02130
65,90000;4,39339;1889,40726;0,02134
66,00000;4,39999;1891,70092;0,02139
66,10000;4,40666;1894,30788;0,02143
66,20000;4,41333;1896,52946;0,02147
66,30000;4,41994;1898,73241;0,02151
66,40000;4,42663;1900,86309;0,02155
66,50000;4,43333;1903,07535;0,02159
66,60000;4,44002;1905,16524;0,02164
66,70000;4,44663;1907,65634;0,02168
66,80000;4,45333;1910,35736;0,02173
66,90000;4,46002;1912,29377;0,02177
67,00000;4,46666;1913,90757;0,02181
67,10000;4,47339;1916,61473;0,02185
67,20000;4,48005;1918,01228;0,02190
67,30000;4,48666;1920,68517;0,02194
67,40000;4,49333;1923,15746;0,02199
67,50000;4,49999;1925,99632;0,02203
67,60000;4,50666;1928,12383;0,02207
67,70000;4,51330;1928,83518;0,02211
67,80000;4,51999;1931,16013;0,02215
67,90000;4,52666;1934,32495;0,02220
68,00000;4,53330;1935,96054;0,02224
68,10000;4,53999;1938,07259;0,02229
68,20000;4,54669;1940,93324;0,02233
68,30000;4,55327;1942,84469;0,02238
68,40000;4,55999;1945,30450;0,02242
68,50000;4,56669;1947,89581;0,02246
68,60000;4,57336;1948,48794;0,02251
68,70000;4,57999;1951,73416;0,02255
68,80000;4,58669;1953,30102;0,02259
68,90000;4,59338;1955,20297;0,02264
69,00000;4,59999;1957,38375;0,02268
69,10000;4,60669;1960,49213;0,02273
69,20000;4,61336;1962,05880;0,02277
69,30000;4,61997;1963,96392;0,02281
69,40000;4,62663;1965,50246;0,02286
69,50000;4,63336;1968,63282;0,02290
69,60000;4,64002;1970,66944;0,02295
69,70000;4,64663;1972,16738;0,02299
69,80000;4,65333;1974,14756;0,02304
69,90000;4,66002;1977,15256;0,02308
70,00000;4,66669;1979,36483;0,02312
70,10000;4,67336;1981,75870;0,02317
70,20000;4,68005;1983,14674;0,02321
70,30000;4,68666;1985,84162;0,02326
70,40000;4,69333;1987,50235;0,02330
70,50000;4,70002;1989,61738;0,02335
70,60000;4,70669;1991,07118;0,02339
70,70000;4,71330;1993,14244;0,02343
70,80000;4,71997;1995,53948;0,02348
70,90000;4,72666;1997,74224;0,02352
71,00000;4,73330;1999,29345;0,02357
71,10000;4,73999;2002,19173;0,02361
71,20000;4,74669;2003,20706;0,02366
71,30000;4,75333;2005,77956;0,02370
71,40000;4,76002;2007,02660;0,02375
71,50000;4,76672;2009,40799;0,02380
71,60000;4,77336;2011,77690;0,02384
71,70000;4,77997;2013,67270;0,02388
71,80000;4,78666;2015,88478;0,02393
71,90000;4,79333;2017,30113;0,02397
72,00000;4,79997;2019,69817;0,02402
72,10000;4,80666;2022,06708;0,02407
72,20000;4,81333;2023,82188;0,02411
72,30000;4,81994;2025,28518;0,02416
72,40000;4,82663;2027,27169;0,02420
72,50000;4,83333;2029,59049;0,02425
72,60000;4,83999;2031,63344;0,02429
72,70000;4,84663;2033,64510;0,02434
72,80000;4,85336;2035,49694;0,02439
72,90000;4,86002;2037,96607;0,02443
73,00000;4,86666;2040,35379;0,02448
73,10000;4,87336;2042,05532;0,02453
73,20000;4,88002;2043,58120;0,02457
73,30000;4,88666;2045,74950;0,02462
73,40000;4,89336;2047,78314;0,02466
73,50000;4,90005;2049,57239;0,02471
73,60000;4,90669;2052,09162;0,02476
73,70000;4,91330;2053,40143;0,02480
73,80000;4,91997;2054,72689;0,02485
73,90000;4,92663;2057,35583;0,02489
74,00000;4,93324;2059,33601;0,02494
74,10000;4,93999;2060,76801;0,02499
74,20000;4,94669;2063,12761;0,02503
74,30000;4,95330;2065,06085;0,02508
74,40000;4,95999;2067,24796;0,02513
74,50000;4,96669;2068,83028;0,02518
74,60000;4,97336;2070,58825;0,02522
74,70000;4,97999;2073,45225;0,02527
74,80000;4,98669;2074,65235;0,02532
74,90000;4,99338;2076,44142;0,02536
75,00000;4,99997;2078,68498;0,02541
75,10000;5,00666;2080,85645;0,02546
75,20000;5,01333;2082,54531;0,02550
75,30000;5,01994;2083,65768;0,02555
75,40000;5,02663;2084,52884;0,02559
75,50000;5,03336;2086,90073;0,02564
75,60000;5,04005;2089,44827;0,02569
75,70000;5,04669;2091,25932;0,02574
75,80000;5,05336;2092,03344;0,02579
75,90000;5,06002;2094,15462;0,02583
76,00000;5,06663;2096,63007;0,02588
76,10000;5,07333;2098,11851;0,02593
76,20000;5,08002;2100,62526;0,02598
76,30000;5,08666;2101,98835;0,02603
76,40000;5,09336;2103,83702;0,02608
76,50000;5,10002;2105,37855;0,02612
76,60000;5,10669;2106,97986;0,02617
76,70000;5,11330;2109,15748;0,02622
76,80000;5,11997;2110,35460;0,02626
76,90000;5,12666;2112,90512;0,02631
77,00000;5,13330;2113,99868;0,02636
77,10000;5,14002;2115,72517;0,02641
77,20000;5,14672;2117,79326;0,02646
77,30000;5,15330;2118,68007;0,02651
77,40000;5,15997;2119,97721;0,02656
77,50000;5,16669;2123,16085;0,02661
77,60000;5,17336;2124,06646;0,02666
77,70000;5,17999;2125,88068;0,02671
77,80000;5,18672;2126,77680;0,02676
77,90000;5,19338;2129,06413;0,02681
78,00000;5,19997;2131,41423;0,02686
78,10000;5,20666;2133,45420;0,02691
78,20000;5,21333;2134,61351;0,02696
78,30000;5,21991;2135,89817;0,02701
78,40000;5,22660;2137,89735;0,02706
78,50000;5,23336;2139,04418;0,02711
78,60000;5,24002;2140,88969;0,02716
78,70000;5,24666;2142,76034;0,02720
78,80000;5,25333;2144,42424;0,02725
78,90000;5,26002;2145,66831;0,02730
79,00000;5,26663;2147,60154;0,02735
79,10000;5,27336;2148,98027;0,02740
79,20000;5,28002;2151,99459;0,02745
79,30000;5,28663;2152,27026;0,02751
79,40000;5,29333;2153,26045;0,02756
79,50000;5,30002;2155,89888;0,02760
79,60000;5,30666;2157,76954;0,02765
79,70000;5,31330;2158,47138;0,02770
79,80000;5,31999;2160,13528;0,02775
79,90000;5,32672;2161,73325;0,02780
80,00000;5,33336;2163,92037;0,02785
80,10000;5,34002;2164,57844;0,02790
80,20000;5,34669;2166,47424;0,02795
80,30000;5,35327;2167,46740;0,02800
80,40000;5,35997;2169,27547;0,02805
80,50000;5,36669;2170,43161;0,02811
80,60000;5,37336;2172,70963;0,02816
80,70000;5,37999;2174,51453;0,02821
80,80000;5,38669;2175,93089;0,02826
80,90000;5,39338;2176,97434;0,02831
81,00000;5,39999;2179,26800;0,02836
81,10000;5,40666;2180,74694;0,02841
81,20000;5,41333;2182,00348;0,02847
81,30000;5,41994;2183,15963;0,02852
81,40000;5,42666;2183,83018;0,02857
81,50000;5,43336;2185,54735;0,02862
81,60000;5,44005;2187,50890;0,02867
81,70000;5,44666;2188,62128;0,02872
81,80000;5,45333;2190,09072;0,02877
81,90000;5,46002;2191,66372;0,02882
82,00000;5,46669;2192,88897;0,02888
82,10000;5,47338;2194,25820;0,02893
82,20000;5,48005;2195,79041;0,02898
82,30000;5,48663;2197,22241;0,02903
82,40000;5,49333;2198,46647;0,02908
82,50000;5,49999;2200,50309;0,02914
82,60000;5,50666;2201,87251;0,02919
82,70000;5,51330;2202,92844;0,02924
82,80000;5,51999;2204,17250;0,02929
82,90000;5,52669;2205,50410;0,02935
83,00000;5,53330;2206,91413;0,02940
83,10000;5,54002;2208,54674;0,02945
83,20000;5,54669;2209,83457;0,02950
83,30000;5,55330;2210,89367;0,02955
83,40000;5,55999;2211,53274;0,02961
83,50000;5,56672;2213,38160;0,02966
83,60000;5,57336;2215,11442;0,02971
83,70000;5,57997;2216,63713;0,02977
83,80000;5,58669;2217,15420;0,02982
83,90000;5,59336;2219,74552;0,02988
84,00000;5,59994;2220,26575;0,02993
84,10000;5,60669;2222,56556;0,02998
84,20000;5,61336;2222,92282;0,03003
84,30000;5,61997;2224,30155;0,03009
84,40000;5,62666;2226,73304;0,03014
84,50000;5,63336;2226,72988;0,03019
84,60000;5,64002;2227,48201;0,03025
84,70000;5,64663;2228,82926;0,03030
84,80000;5,65333;2230,77517;0,03035
84,90000;5,66002;2231,82496;0,03041
85,00000;5,66663;2233,13775;0,03046
85,10000;5,67336;2234,71709;0,03052
85,20000;5,68002;2235,24664;0,03057
85,30000;5,68663;2236,36515;0,03062
85,40000;5,69333;2237,19552;0,03068
85,50000;5,69999;2238,94399;0,03073
85,60000;5,70669;2240,38847;0,03079
85,70000;5,71333;2241,70461;0,03084
85,80000;5,71999;2241,32221;0,03090
85,90000;5,72666;2243,95432;0,03095
86,00000;5,73330;2245,31423;0,03101
86,10000;5,74002;2246,79634;0,03106
86,20000;5,74669;2247,12845;0,03112
86,30000;5,75330;2248,15309;0,03117
86,40000;5,75997;2249,77937;0,03123
86,50000;5,76666;2250,18989;0,03128
86,60000;5,77333;2251,41514;0,03134
86,70000;5,77996;2252,15461;0,03139
86,80000;5,78666;2253,16044;0,03145
86,90000;5,79336;2254,71463;0,03150
87,00000;5,79999;2256,63539;0,03156
87,10000;5,80672;2256,86096;0,03162
87,20000;5,81338;2258,38069;0,03167
87,30000;5,81997;2259,04174;0,03173
87,40000;5,82666;2259,72496;0,03178
87,50000;5,83336;2261,48590;0,03184
87,60000;5,84002;2262,44777;0,03190
87,70000;5,84666;2262,84266;0,03195
87,80000;5,85336;2264,31228;0,03201
87,86600;5,85774;1985,66616;0,02770
87,87200;5,85814;1605,31532;0,02136
87,87600;5,85840;1326,84149;0,01659
