Text Inputs : Specimen label;"1"
Dimension : Length;50,00000;mm
Dimension : Final length;100,00000;mm
Test : Rate 1;4,00000;mm/min
General : Unique Identifier;"{B0473A68-F9E6-4614-9DA6-C04587131EC0}"

Time;Extension;Load;Strain 1
(sec);(mm);(N);(mm/mm)
0,00000;0,00000;-0,10586;0,00000
0,10000;0,00402;0,00068;0,00000
0,20000;0,01023;0,48010;0,00000
0,30000;0,01718;6,71562;0,00000
0,40000;0,02444;15,58947;0,00004
0,50000;0,03177;23,54837;0,00010
0,60000;0,03900;31,43207;0,00016
0,70000;0,04601;39,16849;0,00021
0,80000;0,05293;46,48505;0,00025
0,90000;0,05977;52,54822;0,00030
1,00000;0,06650;60,17499;0,00035
1,10000;0,07328;65,96555;0,00039
1,20000;0,07997;70,23328;0,00042
1,30000;0,08664;75,28437;0,00047
1,40000;0,09336;76,61607;0,00048
1,50000;0,10003;76,70381;0,00049
1,60000;0,10670;76,93254;0,00050
1,70000;0,11330;77,32735;0,00050
1,80000;0,11997;77,16755;0,00051
1,90000;0,12664;77,17696;0,00051
2,00000;0,13330;77,04535;0,00052
2,10000;0,14003;77,12055;0,00052
2,20000;0,14667;78,43032;0,00052
2,30000;0,15328;77,72216;0,00053
2,40000;0,15997;77,88511;0,00053
2,50000;0,16667;76,86674;0,00053
2,60000;0,17333;77,78797;0,00053
2,70000;0,18003;77,11428;0,00054
2,80000;0,18672;77,56863;0,00054
2,90000;0,19339;78,04804;0,00054
3,00000;0,19997;77,15188;0,00054
3,10000;0,20667;77,50283;0,00055
3,20000;0,21333;77,56863;0,00055
3,30000;0,21991;78,39899;0,00055
3,40000;0,22664;77,79110;0,00055
3,50000;0,23336;76,86674;0,00055
3,60000;0,24003;78,47419;0,00055
3,70000;0,24664;77,33989;0,00055
3,80000;0,25333;77,07669;0,00056
3,90000;0,26000;77,12995;0,00056
4,00000;0,26658;77,52476;0,00056
4,10000;0,27333;76,95447;0,00056
4,20000;0,28003;77,33048;0,00056
4,30000;0,28669;78,06685;0,00056
4,40000;0,29336;77,80050;0,00057
4,50000;0,30003;77,88197;0,00057
4,60000;0,30669;77,77857;0,00057
4,70000;0,31330;77,47463;0,00057
4,80000;0,32000;77,81304;0,00057
4,90000;0,32672;77,69710;0,00057
5,00000;0,33333;77,15188;0,00057
5,10000;0,34003;77,48089;0,00057
5,20000;0,34669;77,71903;0,00057
5,30000;0,35328;78,70606;0,00057
5,40000;0,35997;78,42092;0,00058
5,50000;0,36667;77,51536;0,00058
5,60000;0,37336;77,52790;0,00058
5,70000;0,38003;77,32109;0,00058
5,80000;0,38669;77,15815;0,00058
5,90000;0,39336;77,50283;0,00058
6,00000;0,40000;78,16085;0,00058
6,10000;0,40667;77,64383;0,00058
6,20000;0,41333;77,48402;0,00058
6,30000;0,41997;77,82558;0,00058
6,40000;0,42667;78,10758;0,00058
6,50000;0,43333;78,81260;0,00058
6,60000;0,44000;80,67699;0,00060
6,70000;0,44664;82,51631;0,00060
6,80000;0,45330;84,53110;0,00062
6,90000;0,46000;88,90850;0,00064
7,00000;0,46667;90,90449;0,00066
7,10000;0,47339;94,53613;0,00068
7,20000;0,48006;99,32400;0,00071
7,30000;0,48664;103,77973;0,00074
7,40000;0,49333;108,00046;0,00077
7,50000;0,50000;113,34295;0,00080
7,60000;0,50667;118,24676;0,00083
7,70000;0,51330;123,93707;0,00087
7,80000;0,51997;128,89414;0,00091
7,90000;0,52667;135,23933;0,00095
8,00000;0,53330;142,53708;0,00099
8,10000;0,54000;146,98654;0,00103
8,20000;0,54667;152,43557;0,00107
8,30000;0,55328;158,41414;0,00111
8,40000;0,56000;164,24545;0,00115
8,50000;0,56669;169,96395;0,00119
8,60000;0,57336;176,50340;0,00123
8,70000;0,58000;181,14714;0,00127
8,80000;0,58667;187,04738;0,00132
8,90000;0,59336;192,73142;0,00136
9,00000;0,59997;197,85457;0,00139
9,10000;0,60669;204,25301;0,00143
9,20000;0,61339;209,34483;0,00147
9,30000;0,61997;214,58706;0,00152
9,40000;0,62664;219,10232;0,00156
9,50000;0,63336;225,88619;0,00160
9,60000;0,64000;231,31329;0,00164
9,70000;0,64661;236,36750;0,00168
9,80000;0,65333;242,01393;0,00172
9,90000;0,66000;246,87701;0,00177
10,00000;0,66667;252,87753;0,00181
10,10000;0,67336;259,31983;0,00185
10,20000;0,68003;263,43716;0,00189
10,30000;0,68667;269,68834;0,00193
10,40000;0,69333;273,88714;0,00197
10,50000;0,70000;279,70590;0,00202
10,60000;0,70669;285,21447;0,00206
10,70000;0,71330;290,59455;0,00210
10,80000;0,71997;295,74591;0,00214
10,90000;0,72664;300,42725;0,00219
11,00000;0,73328;307,41480;0,00223
11,10000;0,74000;311,28770;0,00227
11,20000;0,74669;316,21032;0,00231
11,30000;0,75333;323,27932;0,00235
11,40000;0,76003;327,26817;0,00239
11,50000;0,76669;332,88328;0,00243
11,60000;0,77336;338,01270;0,00247
11,70000;0,77997;342,04542;0,00251
11,80000;0,78667;347,73885;0,00256
11,90000;0,79333;353,56702;0,00260
12,00000;0,79997;358,27029;0,00264
12,10000;0,80667;363,32763;0,00268
12,20000;0,81333;368,46646;0,00272
12,30000;0,81994;374,71137;0,00276
12,40000;0,82664;378,09233;0,00280
12,50000;0,83333;383,06823;0,00284
12,60000;0,84003;387,99397;0,00288
12,70000;0,84667;392,82572;0,00292
12,80000;0,85336;397,94259;0,00296
12,90000;0,86003;402,52679;0,00300
13,00000;0,86664;407,76273;0,00304
13,10000;0,87333;412,30307;0,00308
13,20000;0,88003;416,65225;0,00312
13,30000;0,88664;422,81887;0,00316
13,40000;0,89336;425,86769;0,00320
13,50000;0,90006;430,64929;0,00323
13,60000;0,90669;435,28047;0,00327
13,70000;0,91330;439,54193;0,00331
13,80000;0,91997;443,49320;0,00335
13,90000;0,92667;448,42209;0,00338
14,00000;0,93325;452,39525;0,00342
14,10000;0,94000;457,23324;0,00346
14,20000;0,94669;461,34433;0,00350
14,30000;0,95330;465,99116;0,00353
14,40000;0,96000;468,77055;0,00357
14,50000;0,96669;472,96933;0,00361
14,60000;0,97336;477,90445;0,00364
14,70000;0,98000;481,06923;0,00368
14,80000;0,98669;486,12342;0,00372
14,90000;0,99339;489,65481;0,00375
15,00000;0,99997;493,73452;0,00379
15,10000;1,00664;498,17772;0,00382
15,20000;1,01330;501,47409;0,00386
15,30000;1,01991;506,13661;0,00389
15,40000;1,02661;509,56146;0,00393
15,50000;1,03333;512,78574;0,00396
15,60000;1,04006;516,98769;0,00400
15,70000;1,04669;520,82613;0,00403
15,80000;1,05336;524,66458;0,00407
15,90000;1,06003;528,02986;0,00410
16,00000;1,06664;533,35042;0,00414
16,10000;1,07333;536,64367;0,00417
16,20000;1,08003;540,44137;0,00421
16,30000;1,08667;544,61197;0,00424
16,40000;1,09333;548,00860;0,00427
16,50000;1,10000;550,93523;0,00431
16,60000;1,10667;555,22486;0,00434
16,70000;1,11330;558,31443;0,00437
16,80000;1,11997;562,66990;0,00440
16,90000;1,12664;565,63411;0,00444
17,00000;1,13330;570,39065;0,00447
17,10000;1,14003;573,58048;0,00450
17,20000;1,14669;577,90773;0,00453
17,30000;1,15330;579,51519;0,00457
17,40000;1,15997;583,88948;0,00460
17,50000;1,16669;587,90962;0,00463
17,60000;1,17336;591,76376;0,00466
17,70000;1,18000;594,78437;0,00469
17,80000;1,18669;599,22757;0,00472
17,90000;1,19336;602,65553;0,00476
18,00000;1,19997;606,11172;0,00479
18,10000;1,20667;610,08804;0,00482
18,20000;1,21333;612,59163;0,00485
18,30000;1,21991;617,59884;0,00488
18,40000;1,22664;620,26540;0,00491
18,50000;1,23336;623,78109;0,00495
18,60000;1,24006;627,82946;0,00498
18,70000;1,24667;630,61197;0,00501
18,80000;1,25333;634,10262;0,00504
18,90000;1,26000;637,79377;0,00507
19,00000;1,26664;641,25936;0,00510
19,10000;1,27336;644,18595;0,00513
19,20000;1,28003;648,00563;0,00516
19,30000;1,28664;651,10144;0,00520
19,40000;1,29330;653,60502;0,00523
19,50000;1,30000;658,02317;0,00526
19,60000;1,30667;660,48917;0,00528
19,70000;1,31330;663,81376;0,00531
19,80000;1,32000;667,67414;0,00534
19,90000;1,32672;671,18984;0,00537
20,00000;1,33336;675,07839;0,00541
20,10000;1,34006;677,71049;0,00544
20,20000;1,34669;681,43611;0,00547
20,30000;1,35330;683,67338;0,00550
20,40000;1,35997;688,10717;0,00553
20,50000;1,36667;691,29700;0,00556
20,60000;1,37336;694,35840;0,00559
20,70000;1,38000;697,91796;0,00562
20,80000;1,38667;700,72236;0,00565
20,90000;1,39336;704,18166;0,00568
21,00000;1,39997;708,28018;0,00571
21,10000;1,40664;710,86213;0,00574
21,20000;1,41333;713,28115;0,00577
21,30000;1,41994;718,90564;0,00581
21,40000;1,42666;720,27179;0,00584
21,50000;1,43336;723,74991;0,00587
21,60000;1,44003;727,09639;0,00590
21,70000;1,44667;730,58703;0,00593
21,80000;1,45333;733,68601;0,00596
21,90000;1,46003;737,20799;0,00599
22,00000;1,46667;739,80559;0,00602
22,10000;1,47339;742,99229;0,00605
22,20000;1,48003;746,85891;0,00608
22,30000;1,48664;749,38135;0,00611
22,40000;1,49333;752,33304;0,00614
22,50000;1,50000;755,90825;0,00617
22,60000;1,50666;758,64685;0,00620
22,70000;1,51330;762,05288;0,00623
22,80000;1,52000;765,05784;0,00626
22,90000;1,52669;767,72752;0,00629
23,00000;1,53330;772,79429;0,00632
23,10000;1,54003;774,91561;0,00635
23,20000;1,54669;778,08038;0,00638
23,30000;1,55330;780,45237;0,00641
23,40000;1,56000;783,71428;0,00644
23,50000;1,56669;787,47747;0,00647
23,60000;1,57336;790,51061;0,00650
23,70000;1,57997;794,58095;0,00653
23,80000;1,58669;796,36080;0,00656
23,90000;1,59336;799,95170;0,00659
24,00000;1,59997;803,40784;0,00662
24,10000;1,60669;806,54128;0,00665
24,20000;1,61336;809,13259;0,00668
24,30000;1,61997;812,58249;0,00671
24,40000;1,62666;815,69711;0,00674
24,50000;1,63336;818,95590;0,00677
24,60000;1,64003;821,85427;0,00680
24,70000;1,64664;825,16950;0,00683
24,80000;1,65333;828,60375;0,00685
24,90000;1,66003;831,73709;0,00689
25,00000;1,66664;835,03351;0,00692
25,10000;1,67333;838,00713;0,00695
25,20000;1,68003;841,09977;0,00698
25,30000;1,68664;843,89169;0,00701
25,40000;1,69330;846,58647;0,00704
25,50000;1,70000;850,37788;0,00707
25,60000;1,70669;853,02247;0,00710
25,70000;1,71330;856,07758;0,00713
25,80000;1,72000;859,48678;0,00716
25,90000;1,72666;862,62329;0,00719
26,00000;1,73330;865,45590;0,00722
26,10000;1,74000;868,40447;0,00725
26,20000;1,74669;871,05222;0,00728
26,30000;1,75330;874,59926;0,00731
26,40000;1,76000;877,23136;0,00734
26,50000;1,76669;881,02594;0,00737
26,60000;1,77336;884,53535;0,00739
26,70000;1,77997;886,33085;0,00742
26,80000;1,78666;889,65539;0,00745
26,90000;1,79333;892,99874;0,00748
27,00000;1,79997;896,52073;0,00751
27,10000;1,80669;899,14966;0,00754
27,20000;1,81336;901,78177;0,00757
27,30000;1,81997;904,38873;0,00760
27,40000;1,82664;907,66000;0,00763
27,50000;1,83333;910,90938;0,00766
27,60000;1,84003;914,99854;0,00769
27,70000;1,84664;917,11041;0,00772
27,80000;1,85336;920,22819;0,00775
27,90000;1,86000;922,95744;0,00778
28,00000;1,86664;926,73004;0,00781
28,10000;1,87333;930,42124;0,00784
28,20000;1,88003;931,87205;0,00787
28,30000;1,88664;935,25294;0,00790
28,40000;1,89336;938,38638;0,00793
28,50000;1,90005;941,51674;0,00796
28,60000;1,90669;943,99210;0,00799
28,70000;1,91330;947,09732;0,00802
28,80000;1,91997;950,34353;0,00805
28,90000;1,92664;953,41746;0,00808
29,00000;1,93327;956,74517;0,00811
29,10000;1,94000;959,62165;0,00814
29,20000;1,94669;962,32891;0,00817
29,30000;1,95330;965,52186;0,00820
29,40000;1,95997;968,72738;0,00823
29,50000;1,96666;970,66378;0,00826
29,60000;1,97336;974,46470;0,00829
29,70000;1,97997;977,42574;0,00832
29,80000;1,98669;980,58423;0,00835
29,90000;1,99339;982,68678;0,00838
30,00000;2,00003;987,45273;0,00841
30,10000;2,00669;989,74323;0,00844
30,20000;2,01333;991,75805;0,00847
30,30000;2,01994;995,04190;0,00850
30,40000;2,02664;998,57636;0,00853
30,50000;2,03336;1001,33065;0,00856
30,60000;2,04005;1004,67401;0,00859
30,70000;2,04666;1008,08628;0,00862
30,80000;2,05333;1010,52411;0,00865
30,90000;2,06003;1014,11194;0,00868
31,00000;2,06661;1017,48658;0,00871
31,10000;2,07333;1020,77043;0,00874
31,20000;2,08003;1023,28341;0,00877
31,30000;2,08666;1026,00642;0,00880
31,40000;2,09336;1029,12411;0,00883
31,50000;2,10005;1032,15100;0,00886
31,60000;2,10669;1034,54180;0,00889
31,70000;2,11330;1037,88525;0,00892
31,80000;2,11997;1040,71153;0,00895
31,90000;2,12666;1043,97973;0,00898
32,00000;2,13330;1046,92513;0,00901
32,10000;2,14003;1050,42206;0,00904
32,20000;2,14669;1053,38311;0,00907
32,30000;2,15330;1056,02462;0,00910
32,40000;2,15997;1058,88546;0,00913
32,50000;2,16666;1061,58331;0,00917
32,60000;2,17336;1065,01440;0,00920
32,70000;2,18003;1068,77452;0,00923
32,80000;2,18672;1070,63577;0,00926
32,90000;2,19342;1073,59374;0,00929
33,00000;2,20000;1077,10315;0,00932
33,10000;2,20666;1080,30867;0,00935
33,20000;2,21333;1081,96000;0,00938
33,30000;2,21994;1085,94252;0,00941
33,40000;2,22664;1088,33332;0,00944
33,50000;2,23336;1091,78638;0,00947
33,60000;2,24003;1094,94803;0,00950
33,70000;2,24664;1097,16021;0,00953
33,80000;2,25333;1100,70724;0,00956
33,90000;2,26000;1103,85008;0,00959
34,00000;2,26661;1106,04661;0,00962
34,10000;2,27333;1109,82554;0,00965
34,20000;2,28003;1112,48270;0,00968
34,30000;2,28669;1114,94558;0,00972
34,40000;2,29333;1118,79027;0,00975
34,50000;2,30003;1121,75448;0,00978
34,60000;2,30669;1123,88516;0,00981
34,70000;2,31330;1127,19722;0,00983
34,80000;2,32000;1130,37452;0,00987
34,90000;2,32669;1132,79670;0,00990
35,00000;2,33333;1136,26532;0,00993
35,10000;2,34003;1139,01338;0,00996
35,20000;2,34669;1141,12217;0,00999
35,30000;2,35327;1144,85407;0,01002
35,40000;2,35994;1147,33260;0,01005
35,50000;2,36666;1150,51307;0,01009
35,60000;2,37336;1153,27984;0,01012
35,70000;2,38003;1157,30632;0,01015
35,80000;2,38672;1159,18322;0,01018
35,90000;2,39339;1162,42319;0,01021
36,00000;2,40000;1165,44385;0,01024
36,10000;2,40666;1168,42370;0,01027
36,20000;2,41333;1171,17176;0,01030
36,30000;2,41994;1174,42105;0,01033
36,40000;2,42664;1177,29446;0,01036
36,50000;2,43333;1180,46235;0,01039
36,60000;2,44000;1183,13832;0,01042
36,70000;2,44664;1186,09937;0,01045
36,80000;2,45330;1188,67503;0,01049
36,90000;2,46000;1191,71757;0,01052
37,00000;2,46666;1195,30540;0,01055
37,10000;2,47339;1198,15050;0,01058
37,20000;2,48005;1200,35643;0,01061
37,30000;2,48664;1203,18597;0,01064
37,40000;2,49333;1206,36951;0,01067
37,50000;2,50000;1209,78495;0,01070
37,60000;2,50666;1212,80868;0,01074
37,70000;2,51330;1216,30561;0,01077
37,80000;2,52000;1218,69324;0,01080
37,90000;2,52666;1221,34723;0,01083
38,00000;2,53330;1224,28956;0,01086
38,10000;2,54003;1227,29763;0,01089
38,20000;2,54669;1230,71624;0,01092
38,30000;2,55327;1233,31072;0,01095
38,40000;2,56000;1235,96154;0,01099
38,50000;2,56669;1239,80632;0,01102
38,60000;2,57336;1242,77994;0,01105
38,70000;2,58000;1245,81624;0,01108
38,80000;2,58669;1248,00019;0,01111
38,90000;2,59336;1250,89549;0,01115
39,00000;2,59997;1253,93178;0,01117
39,10000;2,60669;1257,29078;0,01120
39,20000;2,61336;1259,88843;0,01124
39,30000;2,61997;1262,55183;0,01127
39,40000;2,62666;1265,53802;0,01130
39,50000;2,63336;1269,00664;0,01133
39,60000;2,64003;1272,02729;0,01136
39,70000;2,64663;1274,69702;0,01140
39,80000;2,65333;1278,06226;0,01143
39,90000;2,66003;1280,72565;0,01146
40,00000;2,66666;1284,07534;0,01149
40,10000;2,67336;1286,22800;0,01152
40,20000;2,68005;1289,30816;0,01155
40,30000;2,68666;1292,31308;0,01159
40,40000;2,69333;1295,75357;0,01162
40,50000;2,70003;1298,17575;0,01165
40,60000;2,70669;1301,96093;0,01168
40,70000;2,71330;1303,90050;0,01171
40,80000;2,71994;1306,10019;0,01174
40,90000;2,72666;1309,62525;0,01178
41,00000;2,73330;1312,62392;0,01181
41,10000;2,74000;1315,38762;0,01184
41,20000;2,74669;1318,84692;0,01187
41,30000;2,75333;1321,20019;0,01190
41,40000;2,76003;1324,50275;0,01194
41,50000;2,76672;1326,62412;0,01197
41,60000;2,77336;1329,97688;0,01200
41,70000;2,77997;1332,11389;0,01203
41,80000;2,78666;1335,94600;0,01206
41,90000;2,79333;1337,50653;0,01210
42,00000;2,79997;1341,00337;0,01213
42,10000;2,80669;1343,83291;0,01216
42,20000;2,81333;1346,58087;0,01219
42,30000;2,81994;1350,05582;0,01222
42,40000;2,82663;1352,37770;0,01225
42,50000;2,83333;1355,31686;0,01229
42,60000;2,84003;1358,04927;0,01232
42,70000;2,84663;1361,22964;0,01235
42,80000;2,85336;1363,53271;0,01238
42,90000;2,86003;1366,74764;0,01242
43,00000;2,86666;1369,73690;0,01245
43,10000;2,87336;1372,62903;0,01248
43,20000;2,88003;1375,43976;0,01251
43,30000;2,88666;1378,09059;0,01254
43,40000;2,89336;1380,87310;0,01258
43,50000;2,90005;1383,08527;0,01261
43,60000;2,90669;1385,59518;0,01264
43,70000;2,91330;1389,66553;0,01267
43,80000;2,91997;1391,61451;0,01271
43,90000;2,92666;1394,87013;0,01274
44,00000;2,93327;1396,83792;0,01277
44,10000;2,94003;1400,89253;0,01280
44,20000;2,94669;1403,07341;0,01284
44,30000;2,95330;1406,10030;0,01287
44,40000;2,96000;1409,39979;0,01290
44,50000;2,96669;1412,24498;0,01293
44,60000;2,97336;1414,55745;0,01296
44,70000;2,97997;1417,97289;0,01300
44,80000;2,98669;1420,59866;0,01303
44,90000;2,99339;1422,71686;0,01306
45,00000;2,99997;1425,20797;0,01310
45,10000;3,00663;1429,34090;0,01313
45,20000;3,01333;1432,24252;0,01316
45,30000;3,01994;1434,43905;0,01319
45,40000;3,02663;1436,64805;0,01323
45,50000;3,03336;1440,22647;0,01326
45,60000;3,04005;1442,64549;0,01329
45,70000;3,04669;1446,33353;0,01332
45,80000;3,05336;1448,42975;0,01336
45,90000;3,06003;1451,22791;0,01339
46,00000;3,06663;1453,88190;0,01342
46,10000;3,07333;1456,74590;0,01346
46,20000;3,08002;1460,01093;0,01349
46,30000;3,08663;1462,61482;0,01352
46,40000;3,09333;1465,28129;0,01355
46,50000;3,10000;1468,55572;0,01359
46,60000;3,10666;1470,46717;0,01362
46,70000;3,11330;1474,18650;0,01365
46,80000;3,11997;1476,22013;0,01368
46,90000;3,12666;1479,14672;0,01372
47,00000;3,13330;1481,54069;0,01375
47,10000;3,14005;1485,09396;0,01378
47,20000;3,14672;1487,52239;0,01382
47,30000;3,15330;1490,94090;0,01385
47,40000;3,15997;1493,20327;0,01389
47,50000;3,16669;1495,66615;0,01392
47,60000;3,17336;1498,50501;0,01395
47,70000;3,18000;1501,69795;0,01398
47,80000;3,18672;1504,17965;0,01402
47,90000;3,19339;1507,17832;0,01405
48,00000;3,19997;1509,63813;0,01408
48,10000;3,20666;1512,66186;0,01412
48,20000;3,21333;1515,10593;0,01415
48,30000;3,21991;1517,84141;0,01418
48,40000;3,22663;1520,57689;0,01422
48,50000;3,23336;1523,91400;0,01425
48,60000;3,24005;1526,61186;0,01428
48,70000;3,24666;1529,81104;0,01432
48,80000;3,25333;1532,21125;0,01435
48,90000;3,26000;1534,84335;0,01438
49,00000;3,26663;1537,61022;0,01442
49,10000;3,27333;1540,84079;0,01445
49,20000;3,28002;1542,52648;0,01449
49,30000;3,28663;1546,00460;0,01452
49,40000;3,29333;1549,11615;0,01455
49,50000;3,30000;1551,78271;0,01459
49,60000;3,30666;1554,24867;0,01462
49,70000;3,31330;1557,40716;0,01465
49,80000;3,32000;1560,07055;0,01469
49,90000;3,32672;1562,04151;0,01472
50,00000;3,33336;1564,62658;0,01476
50,10000;3,34005;1567,36523;0,01479
50,20000;3,34672;1569,59612;0,01482
50,30000;3,35330;1573,64774;0,01485
50,40000;3,35997;1575,80338;0,01489
50,50000;3,36666;1578,90562;0,01492
50,60000;3,37336;1581,19295;0,01496
50,70000;3,37997;1583,66207;0,01499
50,80000;3,38666;1586,62014;0,01502
50,90000;3,39336;1589,79110;0,01506
51,00000;3,39997;1592,18181;0,01509
51,10000;3,40663;1594,72004;0,01512
51,20000;3,41330;1597,54008;0,01516
51,30000;3,41994;1599,85870;0,01519
51,40000;3,42666;1603,31801;0,01522
51,50000;3,43336;1605,71821;0,01526
51,60000;3,44002;1607,97127;0,01530
51,70000;3,44666;1612,39877;0,01533
51,80000;3,45333;1613,58640;0,01536
51,90000;3,46002;1617,42792;0,01540
52,00000;3,46666;1619,45522;0,01543
52,10000;3,47339;1622,02157;0,01547
52,20000;3,48002;1624,65349;0,01550
52,30000;3,48663;1627,28876;0,01554
52,40000;3,49330;1631,13978;0,01557
52,50000;3,50000;1633,11698;0,01560
52,60000;3,50666;1636,63272;0,01564
52,70000;3,51330;1638,79786;0,01567
52,80000;3,52000;1641,55848;0,01571
52,90000;3,52669;1643,78621;0,01574
53,00000;3,53333;1646,94469;0,01577
53,10000;3,54002;1649,40450;0,01581
53,20000;3,54669;1651,83283;0,01584
53,30000;3,55330;1654,72198;0,01588
53,40000;3,55997;1657,73630;0,01591
53,50000;3,56669;1660,28999;0,01595
53,60000;3,57336;1662,85634;0,01598
53,70000;3,57997;1665,23457;0,01601
53,80000;3,58669;1667,80390;0,01605
53,90000;3,59336;1670,25123;0,01608
54,00000;3,59994;1672,88948;0,01612
54,10000;3,60669;1676,69039;0,01615
54,20000;3,61339;1678,37609;0,01619
54,30000;3,62000;1681,47832;0,01622
54,40000;3,62666;1684,14786;0,01626
54,50000;3,63336;1686,60451;0,01629
54,60000;3,64002;1688,69756;0,01633
54,70000;3,64663;1691,90634;0,01636
54,80000;3,65330;1694,38478;0,01640
54,90000;3,66002;1696,50614;0,01643
55,00000;3,66663;1699,28242;0,01647
55,10000;3,67333;1702,51615;0,01650
55,20000;3,68002;1704,42127;0,01653
55,30000;3,68663;1706,78385;0,01657
55,40000;3,69330;1710,29940;0,01660
55,50000;3,70000;1712,19837;0,01664
55,60000;3,70669;1715,44775;0,01667
55,70000;3,71333;1718,03590;0,01671
55,80000;3,72000;1720,56779;0,01674
55,90000;3,72666;1723,12465;0,01678
56,00000;3,73330;1725,61575;0,01681
56,10000;3,74002;1727,93753;0,01685
56,20000;3,74669;1731,12415;0,01688
56,30000;3,75333;1733,23303;0,01692
56,40000;3,76000;1736,32260;0,01695
56,50000;3,76666;1738,69766;0,01699
56,60000;3,77336;1741,34225;0,01702
56,70000;3,77997;1743,37905;0,01706
56,80000;3,78666;1746,60329;0,01709
56,90000;3,79333;1748,45830;0,01713
57,00000;3,79997;1750,92127;0,01716
57,10000;3,80669;1754,59664;0,01720
57,20000;3,81336;1756,74316;0,01723
57,30000;3,81997;1758,89898;0,01727
57,40000;3,82663;1761,10175;0,01730
57,50000;3,83333;1764,22261;0,01734
57,60000;3,84002;1766,69173;0,01737
57,70000;3,84663;1769,70605;0,01741
57,80000;3,85333;1771,99356;0,01744
57,90000;3,86002;1773,91116;0,01748
58,00000;3,86661;1776,47434;0,01751
58,10000;3,87333;1780,01188;0,01755
58,20000;3,88002;1781,76034;0,01759
58,30000;3,88663;1785,65215;0,01762
58,40000;3,89336;1787,78917;0,01766
58,50000;3,90005;1789,90420;0,01770
58,60000;3,90672;1792,01923;0,01773
58,70000;3,91333;1793,99643;0,01777
58,80000;3,92000;1797,12679;0,01780
58,90000;3,92663;1799,84346;0,01784
59,00000;3,93327;1802,52865;0,01787
59,10000;3,94000;1805,52434;0,01791
59,20000;3,94669;1807,55164;0,01795
59,30000;3,95330;1809,05256;0,01798
59,40000;3,95997;1811,77855;0,01802
59,50000;3,96669;1814,99980;0,01806
59,60000;3,97336;1817,42813;0,01809
59,70000;3,97997;1819,58713;0,01813
59,80000;3,98669;1822,35073;0,01817
59,90000;3,99339;1824,71648;0,01820
60,00000;4,00002;1827,37987;0,01824
60,10000;4,00669;1830,25338;0,01827
60,20000;4,01333;1831,79490;0,01831
60,30000;4,01994;1835,09439;0,01834
60,40000;4,02663;1838,03048;0,01838
60,50000;4,03339;1840,30849;0,01842
60,60000;4,04005;1842,27303;0,01846
60,70000;4,04669;1844,38825;0,01849
60,80000;4,05333;1847,11423;0,01853
60,90000;4,06002;1850,43886;0,01857
61,00000;4,06663;1852,36596;0,01861
61,10000;4,07333;1854,90083;0,01865
61,20000;4,08002;1858,03119;0,01868
61,30000;4,08666;1859,38478;0,01872
61,40000;4,09336;1862,87537;0,01875
61,50000;4,10005;1863,94695;0,01879
61,60000;4,10669;1866,61351;0,01882
61,70000;4,11330;1868,67230;0,01886
61,80000;4,11999;1871,60205;0,01890
61,90000;4,12666;1874,17455;0,01893
62,00000;4,13327;1876,49019;0,01897
62,10000;4,14000;1879,64868;0,01901
62,20000;4,14666;1881,60073;0,01904
62,30000;4,15330;1883,76904;0,01908
62,40000;4,15997;1886,58908;0,01912
62,50000;4,16669;1889,22435;0,01916
62,60000;4,17336;1891,46474;0,01919
62,70000;4,18002;1894,01228;0,01923
62,80000;4,18672;1896,03958;0,01927
62,90000;4,19339;1898,30512;0,01930
63,00000;4,20000;1901,61709;0,01934
63,10000;4,20666;1903,41566;0,01937
63,20000;4,21333;1905,34890;0,01941
63,30000;4,21994;1908,08754;0,01945
63,40000;4,22663;1911,78825;0,01948
63,50000;4,23336;1913,26085;0,01952
63,60000;4,24002;1915,66739;0,01956
63,70000;4,24663;1917,51923;0,01959
63,80000;4,25333;1920,38007;0,01963
63,90000;4,26000;1923,19695;0,01967
64,00000;4,26660;1924,76045;0,01971
64,10000;4,27336;1927,99419;0,01975
64,20000;4,28002;1930,15318;0,01978
64,30000;4,28669;1932,77895;0,01982
64,40000;4,29333;1935,27639;0,01986
64,50000;4,29999;1937,12506;0,01990
64,60000;4,30666;1939,59735;0,01994
64,70000;4,31330;1941,27690;0,01997
64,80000;4,31999;1944,00921;0,02001
64,90000;4,32672;1946,24644;0,02005
65,00000;4,33333;1948,63100;0,02008
65,10000;4,34002;1951,32252;0,02012
65,20000;4,34669;1953,66647;0,02016
65,30000;4,35330;1955,42108;0,02020
65,40000;4,35997;1957,86208;0,02023
65,50000;4,36669;1960,06801;0,02027
65,60000;4,37336;1962,16106;0,02031
65,70000;4,38002;1964,93734;0,02035
65,80000;4,38672;1966,41944;0,02039
65,90000;4,39339;1968,84163;0,02043
66,00000;4,39999;1971,18539;0,02046
66,10000;4,40666;1974,71362;0,02050
66,20000;4,41333;1976,10483;0,02054
66,30000;4,41994;1978,00994;0,02058
66,40000;4,42663;1980,03408;0,02061
66,50000;4,43333;1982,95452;0,02065
66,60000;4,44002;1985,46126;0,02069
66,70000;4,44663;1987,02794;0,02073
66,80000;4,45333;1989,85748;0,02077
66,90000;4,45999;1992,31710;0,02081
67,00000;4,46666;1994,72047;0,02084
67,10000;4,47339;1996,27150;0,02088
67,20000;4,48005;1998,90044;0,02092
67,30000;4,48666;2000,91526;0,02096
67,40000;4,49333;2003,76045;0,02100
67,50000;4,49999;2005,76894;0,02104
67,60000;4,50666;2008,09091;0,02108
67,70000;4,51330;2009,36925;0,02111
67,80000;4,51997;2012,43069;0,02115
67,90000;4,52666;2014,43285;0,02119
68,00000;4,53330;2016,29736;0,02123
68,10000;4,54002;2019,34930;0,02127
68,20000;4,54669;2021,70238;0,02131
68,30000;4,55327;2022,79296;0,02135
68,40000;4,55999;2024,80759;0,02138
68,50000;4,56669;2028,30769;0,02142
68,60000;4,57336;2030,00605;0,02146
68,70000;4,57999;2032,58488;0,02150
68,80000;4,58669;2034,60269;0,02154
68,90000;4,59338;2036,30421;0,02158
69,00000;4,59999;2038,55410;0,02162
69,10000;4,60669;2041,93182;0,02166
69,20000;4,61336;2043,41393;0,02170
69,30000;4,61997;2045,79532;0,02174
69,40000;4,62663;2047,14276;0,02178
69,50000;4,63336;2049,23265;0,02181
69,60000;4,64002;2052,41628;0,02185
69,70000;4,64663;2053,84828;0,02189
69,80000;4,65333;2055,96648;0,02193
69,90000;4,66002;2059,00911;0,02197
70,00000;4,66666;2061,24950;0,02201
70,10000;4,67338;2062,96965;0,02205
70,20000;4,68005;2064,69297;0,02209
70,30000;4,68666;2066,96168;0,02213
70,40000;4,69333;2069,90708;0,02217
70,50000;4,69999;2072,14747;0,02221
70,60000;4,70669;2073,84266;0,02225
70,70000;4,71330;2075,20891;0,02229
70,80000;4,71997;2077,87845;0,02233
70,90000;4,72663;2079,75544;0,02237
71,00000;4,73327;2081,66689;0,02241
71,10000;4,73999;2084,88479;0,02245
71,20000;4,74669;2086,54236;0,02249
71,30000;4,75333;2088,93642;0,02253
71,40000;4,76002;2091,97886;0,02257
71,50000;4,76672;2093,29501;0,02261
71,60000;4,77336;2095,49461;0,02265
71,70000;4,77997;2097,61281;0,02269
71,80000;4,78666;2099,98172;0,02273
71,90000;4,79336;2101,99021;0,02277
72,00000;4,79997;2104,08643;0,02281
72,10000;4,80669;2106,42722;0,02285
72,20000;4,81333;2108,46066;0,02289
72,30000;4,81997;2109,98990;0,02293
72,40000;4,82663;2111,42190;0,02297
72,50000;4,83333;2113,93479;0,02301
72,60000;4,83999;2115,77415;0,02305
72,70000;4,84663;2117,93929;0,02309
72,80000;4,85336;2119,80063;0,02313
72,90000;4,86002;2122,57057;0,02318
73,00000;4,86666;2123,88653;0,02322
73,10000;4,87336;2126,73489;0,02326
73,20000;4,88002;2129,12261;0,02330
73,30000;4,88666;2130,32588;0,02334
73,40000;4,89336;2132,40013;0,02338
73,50000;4,90005;2134,27395;0,02342
73,60000;4,90669;2136,70861;0,02346
73,70000;4,91330;2137,67998;0,02350
73,80000;4,91997;2140,15543;0,02354
73,90000;4,92663;2142,11382;0,02358
74,00000;4,93327;2143,96250;0,02362
74,10000;4,93999;2146,83581;0,02367
74,20000;4,94669;2148,84430;0,02371
74,30000;4,95330;2150,87160;0,02375
74,40000;4,95999;2152,82999;0,02379
74,50000;4,96669;2154,25882;0,02383
74,60000;4,97336;2157,19491;0,02387
74,70000;4,97997;2158,40433;0,02392
74,80000;4,98669;2160,67303;0,02396
74,90000;4,99336;2161,87946;0,02400
75,00000;4,99997;2163,78141;0,02404
75,10000;5,00666;2167,14982;0,02408
75,20000;5,01333;2168,49409;0,02412
75,30000;5,01994;2169,93541;0,02416
75,40000;5,02663;2171,89696;0,02420
75,50000;5,03336;2174,02447;0,02425
75,60000;5,04005;2175,88264;0,02429
75,70000;5,04669;2177,69686;0,02433
75,80000;5,05336;2179,68356;0,02437
75,90000;5,06002;2181,27538;0,02441
76,00000;5,06663;2183,99502;0,02445
76,10000;5,07336;2185,85320;0,02449
76,20000;5,08002;2187,55472;0,02454
76,30000;5,08666;2189,53192;0,02458
76,40000;5,09336;2191,39624;0,02462
76,50000;5,10002;2193,74634;0,02467
76,60000;5,10669;2195,26291;0,02471
76,70000;5,11330;2195,84256;0,02475
76,80000;5,11997;2198,06731;0,02479
76,90000;5,12666;2200,74635;0,02483
77,00000;5,13330;2201,72405;0,02488
77,10000;5,14005;2204,34666;0,02492
77,20000;5,14669;2205,87272;0,02496
77,30000;5,15330;2208,17253;0,02500
77,40000;5,15997;2209,36965;0,02504
77,50000;5,16669;2211,93265;0,02509
77,60000;5,17336;2214,09481;0,02513
77,70000;5,17999;2215,88705;0,02518
77,80000;5,18669;2218,10564;0,02522
77,90000;5,19336;2218,92018;0,02526
78,00000;5,19997;2220,59973;0,02530
78,10000;5,20666;2223,85544;0,02535
78,20000;5,21333;2225,14961;0,02539
78,30000;5,21991;2226,74441;0,02543
78,40000;5,22663;2227,96649;0,02548
78,50000;5,23336;2230,07221;0,02552
78,60000;5,24005;2231,78919;0,02556
78,70000;5,24669;2233,93571;0,02560
78,80000;5,25336;2235,68100;0,02565
78,90000;5,26002;2237,81168;0,02569
79,00000;5,26663;2239,09952;0,02573
79,10000;5,27333;2242,17027;0,02578
79,20000;5,28002;2242,85647;0,02582
79,30000;5,28666;2244,67702;0,02587
79,40000;5,29333;2246,86097;0,02591
79,50000;5,30002;2248,36823;0,02595
79,60000;5,30666;2250,34859;0,02600
79,70000;5,31330;2251,19777;0,02604
79,80000;5,31999;2253,45697;0,02608
79,90000;5,32672;2254,91710;0,02613
80,00000;5,33336;2256,85351;0,02617
80,10000;5,34005;2259,73316;0,02622
80,20000;5,34672;2259,75811;0,02626
80,30000;5,35330;2261,42835;0,02630
80,40000;5,35997;2264,19829;0,02635
80,50000;5,36669;2265,39522;0,02639
80,60000;5,37336;2267,12171;0,02643
80,70000;5,37999;2269,06445;0,02648
80,80000;5,38666;2270,65310;0,02652
80,90000;5,39336;2272,09143;0,02657
81,00000;5,39997;2273,10341;0,02661
81,10000;5,40663;2276,37477;0,02666
81,20000;5,41333;2277,35545;0,02670
81,30000;5,41994;2279,36711;0,02674
81,40000;5,42666;2280,30719;0,02679
81,50000;5,43336;2281,92713;0,02683
81,60000;5,44002;2283,40626;0,02688
81,70000;5,44663;2284,74103;0,02692
81,80000;5,45333;2286,36730;0,02697
81,90000;5,46002;2288,31004;0,02701
82,00000;5,46666;2289,80146;0,02706
82,10000;5,47338;2292,31454;0,02710
82,20000;5,48002;2293,76834;0,02715
82,30000;5,48663;2294,64881;0,02719
82,40000;5,49333;2296,15290;0,02723
82,50000;5,49999;2298,76935;0,02728
82,60000;5,50666;2300,27344;0,02732
82,70000;5,51330;2300,88439;0,02737
82,80000;5,51999;2302,75188;0,02742
82,90000;5,52669;2304,68530;0,02746
83,00000;5,53333;2305,17406;0,02751
83,10000;5,54002;2308,10381;0,02755
83,20000;5,54669;2309,01260;0,02759
83,30000;5,55330;2310,81117;0,02764
83,40000;5,55999;2311,80135;0,02768
83,50000;5,56669;2313,87559;0,02773
83,60000;5,57336;2315,39533;0,02778
83,70000;5,57997;2317,01527;0,02782
83,80000;5,58669;2318,42212;0,02787
83,90000;5,59336;2319,38418;0,02792
84,00000;5,59994;2320,86629;0,02796
84,10000;5,60669;2322,32325;0,02801
84,20000;5,61336;2323,70831;0,02805
84,30000;5,61997;2325,29379;0,02810
84,40000;5,62666;2327,10801;0,02814
84,50000;5,63336;2327,74727;0,02819
84,60000;5,64002;2329,94072;0,02824
84,70000;5,64663;2331,54502;0,02828
84,80000;5,65333;2332,17794;0,02833
84,90000;5,66002;2334,30546;0,02838
85,00000;5,66663;2335,69983;0,02842
85,10000;5,67333;2337,00033;0,02847
85,20000;5,68002;2338,82088;0,02852
85,30000;5,68663;2339,73581;0,02856
85,40000;5,69330;2341,27436;0,02861
85,50000;5,69999;2342,50892;0,02866
85,60000;5,70669;2344,03796;0,02871
85,70000;5,71333;2345,04063;0,02875
85,80000;5,71999;2347,94840;0,02880
85,90000;5,72669;2348,73183;0,02884
86,00000;5,73330;2349,64043;0,02889
86,10000;5,74002;2351,43602;0,02894
86,20000;5,74669;2351,99053;0,02899
86,30000;5,75333;2353,64512;0,02903
86,40000;5,75999;2355,14287;0,02908
86,50000;5,76669;2356,34912;0,02913
86,60000;5,77336;2357,51476;0,02917
86,70000;5,77996;2359,38542;0,02922
86,80000;5,78666;2360,95525;0,02927
86,90000;5,79333;2362,14604;0,02932
87,00000;5,79997;2362,83224;0,02936
87,10000;5,80669;2364,98490;0,02941
87,20000;5,81336;2365,85904;0,02946
87,30000;5,81997;2367,13123;0,02951
87,40000;5,82666;2367,76117;0,02956
87,50000;5,83336;2369,62549;0,02960
87,60000;5,84002;2370,86006;0,02965
87,70000;5,84666;2371,39594;0,02970
87,80000;5,85336;2372,67744;0,02975
87,90000;5,86002;2374,34767;0,02980
88,00000;5,86663;2374,80514;0,02984
88,10000;5,87335;2377,28357;0,02989
88,20000;5,88002;2378,13592;0,02994
88,30000;5,88663;2379,45504;0,02999
88,40000;5,89336;2380,14758;0,03004
88,50000;5,90005;2381,87723;0,03009
88,60000;5,90672;2382,85474;0,03014
88,70000;5,91333;2384,01107;0,03018
88,80000;5,91999;2386,25463;0,03023
88,90000;5,92666;2386,46455;0,03028
89,00000;5,93330;2387,75238;0,03033
89,10000;5,94002;2388,34769;0,03038
89,20000;5,94669;2389,68879;0,03043
89,30000;5,95330;2391,29942;0,03048
89,40000;5,95996;2392,39614;0,03053
89,50000;5,96669;2392,92569;0,03057
89,60000;5,97335;2394,61772;0,03062
89,70000;5,97996;2395,43859;0,03067
89,80000;5,98669;2397,50352;0,03072
89,90000;5,99338;2397,07753;0,03077
90,00000;5,99999;2399,40863;0,03082
90,10000;6,00666;2400,29227;0,03087
90,20000;6,01335;2401,53950;0,03092
90,30000;6,01994;2402,41997;0,03097
90,40000;6,02663;2403,83931;0,03102
90,50000;6,03338;2404,52569;0,03107
90,60000;6,04005;2405,29329;0,03112
90,70000;6,04669;2407,01661;0,03116
90,80000;6,05335;2408,37969;0,03121
90,90000;6,06002;2408,89043;0,03126
91,00000;6,06663;2410,20024;0,03131
91,10000;6,07333;2410,83000;0,03137
91,20000;6,08002;2412,29329;0,03142
91,30000;6,08666;2412,80403;0,03147
91,40000;6,09335;2413,76292;0,03152
91,50000;6,10005;2414,89094;0,03157
91,60000;6,10669;2416,00014;0,03162
91,70000;6,11330;2417,65156;0,03167
91,80000;6,11999;2418,74196;0,03172
91,90000;6,12666;2420,13950;0,03177
92,00000;6,13327;2420,43082;0,03182
92,10000;6,14002;2421,32712;0,03187
92,20000;6,14666;2422,35158;0,03192
92,30000;6,15330;2422,99400;0,03198
92,40000;6,15996;2424,20360;0,03203
92,50000;6,16669;2425,28133;0,03208
92,60000;6,17335;2426,04595;0,03213
92,70000;6,18002;2427,24922;0,03218
92,80000;6,18672;2427,69737;0,03223
92,90000;6,19338;2428,77509;0,03228
93,00000;6,19999;2429,93459;0,03233
93,10000;6,20666;2431,52324;0,03238
93,20000;6,21333;2432,08092;0,03244
93,30000;6,21994;2433,01466;0,03249
93,40000;6,22663;2433,36875;0,03254
93,50000;6,23335;2435,05761;0,03259
93,60000;6,24002;2436,44901;0,03264
93,70000;6,24663;2436,11988;0,03269
93,80000;6,25333;2437,98122;0,03275
93,90000;6,26002;2438,71752;0,03280
94,00000;6,26663;2438,80842;0,03285
94,10000;6,27335;2440,02733;0,03290
94,20000;6,28005;2441,48746;0,03295
94,30000;6,28669;2441,49696;0,03301
94,40000;6,29333;2442,94759;0,03306
94,50000;6,30002;2443,99421;0,03311
94,60000;6,30669;2444,53624;0,03317
94,70000;6,31330;2445,02835;0,03322
94,80000;6,31999;2446,26291;0,03327
94,90000;6,32672;2446,66394;0,03332
95,00000;6,33333;2448,11475;0,03337
95,10000;6,34002;2449,37427;0,03343
95,20000;6,34669;2449,58419;0,03348
95,30000;6,35330;2449,70340;0,03353
95,40000;6,35994;2451,11659;0,03359
95,50000;6,36669;2451,70239;0,03364
95,60000;6,37338;2452,49216;0,03369
95,70000;6,38002;2453,50096;0,03375
95,80000;6,38672;2453,88336;0,03380
95,90000;6,39338;2454,05883;0,03386
96,00000;6,39999;2455,82610;0,03391
96,10000;6,40666;2456,40259;0,03396
96,20000;6,41333;2457,24544;0,03401
96,30000;6,41994;2458,29206;0,03407
96,40000;6,42666;2458,18552;0,03412
96,50000;6,43333;2459,10678;0,03417
96,60000;6,44002;2460,19401;0,03423
96,70000;6,44663;2461,04952;0,03428
96,80000;6,45333;2462,56292;0,03434
96,90000;6,46002;2462,30904;0,03439
97,00000;6,46666;2463,25228;0,03444
97,10000;6,47338;2463,39329;0,03450
97,20000;6,48008;2463,73788;0,03455
97,30000;6,48666;2464,12642;0,03461
97,40000;6,49333;2465,47386;0,03466
97,50000;6,49999;2466,89953;0,03472
97,60000;6,50666;2466,87457;0,03477
97,70000;6,51330;2467,41660;0,03482
97,80000;6,51999;2469,22448;0,03488
97,90000;6,52666;2469,22448;0,03493
98,00000;6,53330;2469,80730;0,03499
98,10000;6,54002;2470,73174;0,03505
98,20000;6,54669;2471,17039;0,03510
98,30000;6,55327;2471,79084;0,03516
98,40000;6,55999;2471,61854;0,03521
98,50000;6,56669;2472,63368;0,03527
98,60000;6,57335;2473,10065;0,03532
98,70000;6,57999;2474,07518;0,03537
98,80000;6,58669;2475,14360;0,03543
98,90000;6,59335;2474,99011;0,03548
99,00000;6,59999;2475,53531;0,03554
99,10000;6,60669;2476,44391;0,03559
99,20000;6,61338;2476,38766;0,03565
99,30000;6,61996;2476,99544;0,03571
99,40000;6,62663;2477,65351;0,03576
99,50000;6,63335;2478,43992;0,03582
99,60000;6,64002;2479,28910;0,03587
99,70000;6,64663;2479,43960;0,03593
99,80000;6,65333;2480,22601;0,03598
99,90000;6,66002;2480,69912;0,03604
100,00000;6,66669;2481,40115;0,03610
100,10000;6,67338;2481,40115;0,03615
100,20000;6,68005;2481,65801;0,03621
100,30000;6,68666;2482,71078;0,03626
100,40000;6,69333;2482,81416;0,03632
100,50000;6,70002;2482,91139;0,03637
100,60000;6,70669;2484,16793;0,03643
100,70000;6,71330;2484,09268;0,03648
100,80000;6,71996;2485,12663;0,03654
100,90000;6,72666;2485,31476;0,03660
101,00000;6,73330;2485,28961;0,03665
101,10000;6,73999;2486,46773;0,03671
101,20000;6,74669;2486,21088;0,03677
101,30000;6,75333;2486,51803;0,03683
101,40000;6,76002;2487,27631;0,03688
101,50000;6,76672;2487,82765;0,03694
101,60000;6,77335;2488,44493;0,03700
101,70000;6,77996;2488,85546;0,03705
101,80000;6,78666;2488,99329;0,03711
101,90000;6,79335;2489,66087;0,03717
102,00000;6,79996;2489,76108;0,03722
102,10000;6,80666;2490,11200;0,03728
102,20000;6,81333;2489,63255;0,03734
102,30000;6,81994;2490,53184;0,03739
102,40000;6,82663;2490,92355;0,03745
102,50000;6,83333;2491,78521;0,03751
102,60000;6,83999;2492,44943;0,03757
102,70000;6,84663;2491,35587;0,03763
102,80000;6,85335;2492,36170;0,03769
102,90000;6,86002;2493,23286;0,03775
103,00000;6,86666;2493,38020;0,03780
103,10000;6,87335;2493,71231;0,03786
103,20000;6,88005;2493,97866;0,03792
103,30000;6,88666;2493,64655;0,03797
103,40000;6,89335;2493,62774;0,03803
103,50000;6,90005;2495,57979;0,03809
103,60000;6,90669;2494,29196;0,03815
103,70000;6,91330;2494,79655;0,03821
103,80000;6,91999;2494,98449;0,03827
103,90000;6,92663;2495,04093;0,03833
104,00000;6,93327;2495,40433;0,03838
104,10000;6,94002;2496,19391;0,03844
104,20000;6,94669;2496,60760;0,03850
104,30000;6,95330;2496,52304;0,03856
104,40000;6,95999;2497,25934;0,03862
104,50000;6,96669;2497,55383;0,03868
104,60000;6,97335;2496,44779;0,03874
104,70000;6,97996;2497,93623;0,03880
104,80000;6,98669;2498,06456;0,03886
104,90000;6,99338;2497,51005;0,03892
105,00000;6,99996;2498,41250;0,03898
105,10000;7,00666;2498,94820;0,03904
105,20000;7,01335;2498,44994;0,03910
105,30001;7,01993;2499,57182;0,03915
105,40001;7,02663;2499,18643;0,03922
105,50001;7,03335;2500,14216;0,03928
105,60001;7,04005;2499,40269;0,03934
105,70001;7,04669;2499,57182;0,03940
105,80001;7,05335;2499,96353;0,03945
105,90001;7,06002;2500,05741;0,03951
106,00001;7,06663;2500,55883;0,03957
106,10001;7,07333;2500,38654;0,03963
106,20001;7,08002;2501,35157;0,03969
106,30001;7,08666;2501,16680;0,03975
106,40001;7,09335;2501,09769;0,03981
106,50001;7,10002;2501,65556;0,03987
106,60001;7,10669;2500,92857;0,03993
106,70001;7,11330;2501,39851;0,03999
106,80001;7,11996;2501,66804;0,04005
106,90001;7,12666;2501,73695;0,04011
107,00001;7,13330;2502,01896;0,04017
107,10001;7,14005;2502,38869;0,04024
107,20001;7,14669;2501,69002;0,04030
107,30001;7,15330;2502,39503;0,04036
107,40001;7,15996;2502,47642;0,04041
107,50001;7,16669;2502,72714;0,04048
107,60001;7,17335;2502,49207;0,04054
107,70001;7,18002;2502,14431;0,04060
107,80001;7,18672;2501,60228;0,04066
107,90001;7,19338;2502,57365;0,04072
108,00001;7,19996;2503,11568;0,04078
108,10001;7,20666;2503,35392;0,04084
108,20001;7,21332;2502,64574;0,04090
108,30001;7,21991;2503,11568;0,04096
108,40001;7,22663;2502,81487;0,04102
108,50001;7,23335;2503,47927;0,04108
108,60001;7,24005;2502,85883;0,04114
108,70001;7,24666;2502,53603;0,04120
108,80001;7,25332;2502,70516;0,04127
108,90001;7,25999;2503,56700;0,04133
109,00001;7,26663;2503,17845;0,04139
109,10001;7,27333;2503,66721;0,04145
109,20001;7,28002;2503,55434;0,04151
109,30001;7,28663;2503,50107;0,04158
109,40001;7,29333;2502,91824;0,04164
109,50001;7,30002;2503,52621;0,04170
109,60001;7,30666;2503,18777;0,04176
109,70001;7,31330;2502,80239;0,04182
109,80001;7,31999;2503,46046;0,04188
109,90001;7,32672;2503,14083;0,04194
110,00001;7,33335;2503,31946;0,04201
110,10001;7,34005;2503,12816;0,04207
110,20001;7,34672;2502,87447;0,04213
110,30001;7,35330;2503,09072;0,04219
110,40001;7,35996;2503,15964;0,04226
110,50001;7,36669;2503,13450;0,04232
110,60001;7,37335;2503,50107;0,04238
110,70001;7,37999;2503,77990;0,04245
110,80001;7,38669;2502,96835;0,04251
110,90001;7,39335;2503,92407;0,04257
111,00001;7,39996;2503,16262;0,04263
111,10001;7,40666;2502,93091;0,04269
111,20001;7,41333;2502,80555;0,04276
111,30001;7,41996;2502,65505;0,04282
111,40001;7,42666;2502,47028;0,04288
111,50001;7,43335;2503,24737;0,04294
111,60001;7,44002;2502,74278;0,04301
111,70001;7,44663;2502,57365;0,04307
111,80001;7,45333;2502,71782;0,04313
111,90001;7,46002;2502,80239;0,04320
112,00001;7,46666;2502,85249;0,04326
112,10001;7,47338;2502,34492;0,04332
112,20001;7,48002;2502,54851;0,04339
112,30001;7,48663;2502,48592;0,04345
112,40001;7,49333;2502,48276;0,04351
112,50001;7,50002;2502,07223;0,04357
112,60001;7,50666;2502,02846;0,04364
112,70001;7,51330;2502,05342;0,04370
112,80001;7,51999;2501,48941;0,04376
112,90001;7,52669;2501,36107;0,04382
113,00001;7,53332;2501,65556;0,04389
113,10001;7,54002;2502,05658;0,04395
113,20001;7,54669;2501,27017;0,04401
113,30001;7,55330;2499,92590;0,04407
113,40001;7,55999;2500,06057;0,04414
113,50001;7,56669;2500,78440;0,04420
113,60001;7,57335;2500,98817;0,04427
113,70001;7,57996;2500,87529;0,04433
113,80001;7,58669;2500,30812;0,04440
113,90001;7,59335;2500,11068;0,04446
114,00001;7,59996;2500,20791;0,04452
114,10001;7,60669;2500,73746;0,04459
114,20001;7,61338;2499,11118;0,04465
114,30001;7,61996;2499,47160;0,04471
114,40001;7,62666;2499,92907;0,04478
114,50001;7,63335;2500,02611;0,04484
114,60001;7,64002;2499,75976;0,04491
114,70001;7,64663;2498,79472;0,04497
114,80001;7,65332;2498,66620;0,04504
114,90001;7,66002;2498,72897;0,04510
115,00001;7,66663;2498,71630;0,04517
115,10001;7,67333;2498,42815;0,04523
115,20001;7,68002;2498,13981;0,04530
115,30001;7,68663;2498,44696;0,04536
115,40001;7,69330;2498,31211;0,04542
115,50001;7,69999;2498,77907;0,04549
115,60001;7,70669;2497,59145;0,04555
115,70001;7,71332;2496,57631;0,04562
115,80001;7,71999;2496,88644;0,04568
115,90001;7,72669;2496,53552;0,04574
116,00001;7,73332;2496,26283;0,04581
116,10001;7,74005;2496,55750;0,04588
116,20001;7,74671;2495,95270;0,04594
116,30001;7,75332;2496,08438;0,04601
116,40001;7,75999;2495,80853;0,04607
116,50001;7,76666;2496,25351;0,04613
116,60001;7,77335;2495,52652;0,04620
116,70001;7,77996;2494,99064;0,04626
116,80001;7,78666;2494,88726;0,04633
116,90001;7,79332;2494,59278;0,04640
117,00001;7,79996;2493,85647;0,04646
117,10001;7,80669;2494,12600;0,04653
117,20001;7,81335;2493,87845;0,04659
117,30001;7,81996;2494,04758;0,04666
117,40001;7,82666;2493,68101;0,04672
117,50001;7,83335;2493,11700;0,04678
117,60001;7,84002;2492,81935;0,04685
117,70001;7,84666;2492,07038;0,04692
117,80001;7,85335;2492,28664;0,04698
117,90001;7,86002;2492,12999;0,04705
118,00001;7,86663;2491,48440;0,04711
118,10001;7,87332;2491,93255;0,04718
118,20001;7,88002;2491,97017;0,04724
118,30001;7,88663;2491,74759;0,04731
118,40001;7,89335;2491,43112;0,04738
118,50001;7,90005;2490,00229;0,04744
118,60001;7,90671;2490,39717;0,04751
118,70001;7,91330;2489,78306;0,04757
118,80001;7,91999;2489,46957;0,04764
118,90001;7,92666;2489,64205;0,04770
119,00001;7,93330;2488,90556;0,04776
119,10001;7,93999;2488,88377;0,04783
119,20001;7,94669;2488,76456;0,04790
119,30001;7,95330;2488,40433;0,04796
119,40001;7,95996;2487,69615;0,04803
119,50001;7,96666;2487,94984;0,04809
119,60001;7,97335;2487,59594;0,04816
119,70001;7,97996;2487,50802;0,04822
119,80001;7,98669;2486,98480;0,04829
119,90001;7,99338;2486,22019;0,04836
120,00001;7,99999;2487,06639;0,04842
120,10001;8,00669;2486,24850;0,04849
120,20001;8,01335;2485,76906;0,04856
120,30001;8,01993;2486,36436;0,04862
120,40001;8,02666;2484,72244;0,04869
120,50001;8,03338;2485,01711;0,04875
120,60001;8,04005;2484,54381;0,04882
120,70001;8,04669;2484,27764;0,04888
120,80001;8,05335;2483,94534;0,04895
120,90001;8,06002;2483,36885;0,04902
121,00001;8,06663;2483,13379;0,04908
121,10001;8,07332;2483,02724;0,04915
121,20001;8,08002;2483,61006;0,04921
121,30001;8,08666;2482,54482;0,04928
121,40001;8,09335;2482,15627;0,04934
121,50001;8,10005;2481,53582;0,04941
121,60001;8,10669;2480,92785;0,04948
121,70001;8,11329;2480,57377;0,04954
121,80001;8,11999;2480,78685;0,04961
121,90001;8,12666;2480,64268;0,04968
122,00001;8,13330;2479,75606;0,04974
122,10001;8,14002;2480,07253;0,04981
122,20001;8,14669;2480,23849;0,04988
122,30001;8,15330;2479,16691;0,04994
122,40001;8,15999;2478,61538;0,05001
122,50001;8,16669;2478,76272;0,05007
122,60001;8,17335;2478,59359;0,05014
122,70001;8,18002;2478,14544;0,05021
122,80001;8,18671;2477,15842;0,05027
122,90001;8,19341;2477,09882;0,05034
123,00001;8,19999;2477,56895;0,05041
123,10001;8,20666;2476,39064;0,05047
123,20001;8,21332;2476,56610;0,05054
123,21801;8,21452;2476,61639;0,05055
123,31801;8,22110;2475,56027;0,05062
123,32601;8,22164;2475,42243;0,05063
123,42601;8,22825;2476,21220;0,05069
123,52601;8,23495;2474,71742;0,05076
123,62601;8,24159;2474,42294;0,05082
123,72601;8,24822;2474,29758;0,05089
123,82601;8,25492;2474,12212;0,05096
123,92601;8,26159;2473,76170;0,05103
124,02601;8,26819;2473,78051;0,05109
124,12601;8,27495;2472,97212;0,05116
124,22601;8,28161;2472,48020;0,05123
124,32601;8,28825;2472,72141;0,05129
124,42601;8,29495;2472,78418;0,05136
124,52601;8,30164;2472,37366;0,05143
124,62601;8,30828;2471,88173;0,05149
124,72601;8,31492;2471,04820;0,05156
124,82601;8,32161;2470,91353;0,05163
124,92601;8,32834;2470,22100;0,05170
125,02601;8,33495;2470,99809;0,05176
125,12601;8,34164;2469,83562;0,05183
125,22601;8,34828;2469,38132;0,05190
125,32601;8,35486;2469,58807;0,05196
125,42601;8,36156;2469,13377;0,05203
125,52601;8,36828;2469,08348;0,05210
125,62601;8,37495;2468,28459;0,05217
125,72601;8,38161;2467,67048;0,05224
125,82601;8,38831;2466,78982;0,05230
125,92601;8,39498;2467,08766;0,05237
126,02601;8,40159;2466,60821;0,05244
126,12601;8,40825;2466,66465;0,05250
126,22601;8,41492;2465,85310;0,05257
126,32601;8,42156;2465,90320;0,05264
126,42601;8,42825;2465,89370;0,05271
126,52601;8,43495;2465,27325;0,05278
126,62601;8,44159;2465,20434;0,05284
126,72601;8,44825;2464,54943;0,05291
126,82601;8,45492;2464,02938;0,05298
126,92601;8,46161;2463,74104;0,05305
127,02601;8,46828;2463,69727;0,05312
127,12601;8,47498;2462,94830;0,05319
127,22601;8,48164;2462,94513;0,05325
127,32601;8,48822;2462,99841;0,05332
127,42601;8,49492;2461,56026;0,05339
127,52601;8,50161;2462,87305;0,05346
127,62601;8,50825;2461,33469;0,05352
127,72601;8,51489;2460,92100;0,05359
127,82601;8,52159;2460,82377;0,05366
127,92601;8,52828;2460,42591;0,05373
128,02601;8,53492;2460,63266;0,05379
128,12601;8,54161;2459,44206;0,05386
128,22601;8,54828;2459,18203;0,05393
128,32601;8,55489;2458,73071;0,05399
128,42601;8,56161;2459,11293;0,05406
128,52601;8,56831;2459,48900;0,05414
128,62601;8,57495;2457,47101;0,05420
128,72601;8,58159;2458,06333;0,05427
128,82601;8,58828;2457,09512;0,05434
128,92601;8,59495;2457,21731;0,05440
129,02601;8,60159;2457,11077;0,05447
129,12601;8,60831;2455,94196;0,05454
129,22601;8,61498;2455,45637;0,05461
129,32601;8,62156;2455,37478;0,05468
129,42601;8,62825;2454,52877;0,05474
129,52601;8,63498;2455,13041;0,05481
129,62601;8,64159;2454,77632;0,05488
129,72601;8,64822;2452,99339;0,05494
129,82601;8,65495;2453,66711;0,05501
129,92601;8,66161;2453,36629;0,05508
130,02601;8,66828;2454,61650;0,05515
130,12601;8,67498;2452,38245;0,05522
130,22601;8,68164;2452,52028;0,05528
130,32601;8,68825;2452,52028;0,05535
130,42601;8,69495;2451,60218;0,05542
130,52601;8,70161;2451,65545;0,05549
130,62601;8,70825;2450,92846;0,05555
130,72601;8,71489;2450,38010;0,05562
130,82601;8,72159;2450,12641;0,05569
130,92601;8,72825;2450,08878;0,05576
131,02601;8,73489;2449,81293;0,05582
131,12601;8,74159;2448,94512;0,05589
131,22601;8,74828;2449,65013;0,05596
131,32601;8,75492;2448,22428;0,05603
131,42601;8,76161;2447,77314;0,05610
131,52601;8,76831;2447,63847;0,05616
131,62601;8,77495;2446,45085;0,05623
131,72601;8,78156;2446,99288;0,05630
131,82601;8,78828;2446,22212;0,05637
131,92601;8,79495;2446,43204;0,05644
132,02601;8,80159;2446,28787;0,05651
132,12601;8,80828;2445,40423;0,05658
132,22601;8,81495;2445,55473;0,05664
132,32601;8,82153;2445,15669;0,05671
132,42601;8,82825;2443,91896;0,05678
132,52601;8,83495;2444,44236;0,05685
132,62601;8,84159;2444,02867;0,05692
132,72601;8,84825;2443,37376;0,05699
132,82601;8,85495;2443,06363;0,05706
132,92601;8,86164;2442,98838;0,05712
133,02601;8,86825;2443,12938;0,05719
133,12601;8,87495;2442,81292;0,05726
133,22601;8,88164;2441,31200;0,05733
133,32601;8,88825;2441,62232;0,05740
133,42601;8,89498;2441,04564;0,05747
133,52601;8,90164;2441,44667;0,05754
133,62601;8,90825;2440,47847;0,05760
133,72601;8,91489;2439,70454;0,05767
133,82601;8,92159;2439,34114;0,05774
133,92601;8,92825;2439,72335;0,05781
134,02601;8,93489;2439,28470;0,05788
134,12601;8,94161;2438,60781;0,05795
134,22601;8,94828;2438,72385;0,05802
134,32601;8,95492;2438,41670;0,05809
134,42601;8,96161;2437,69921;0,05816
134,52601;8,96831;2436,83755;0,05823
134,62601;8,97495;2436,74032;0,05830
134,72601;8,98158;2436,54288;0,05837
134,82601;8,98828;2436,46465;0,05843
134,92601;8,99498;2435,35843;0,05851
135,02601;9,00158;2436,27355;0,05857
135,12601;9,00825;2434,79759;0,05864
135,22601;9,01492;2435,58101;0,05871
135,32601;9,02153;2434,70669;0,05878
135,36401;9,02406;2083,62211;0,06013
135,36801;9,02435;1815,62640;0,06082
135,37201;9,02461;1522,89877;0,06127
135,37401;9,02475;1376,17607;0,06140
