Text Inputs : Specimen label;"1"
Dimension : Length;50,00000;mm
Dimension : Final length;100,00000;mm
Test : Rate 1;4,00000;mm/min
General : Unique Identifier;"{A5796630-E12C-48A0-8AF6-BBAD5E641EAD}"

Time;Extension;Load;Strain 1
(sec);(mm);(N);(mm/mm)
0,00000;0,00000;-0,45227;0,00000
0,10000;0,00402;-0,69668;0,00000
0,20000;0,01020;-0,64028;0,00000
0,30000;0,01715;5,80205;0,00001
0,40000;0,02442;13,82988;0,00006
0,50000;0,03177;22,23686;0,00012
0,60000;0,03900;30,13309;0,00017
0,70000;0,04601;37,02036;0,00022
0,80000;0,05293;43,77603;0,00027
0,90000;0,05977;51,29938;0,00032
1,00000;0,06650;56,09666;0,00035
1,10000;0,07328;60,36751;0,00038
1,20000;0,08000;64,49111;0,00041
1,30000;0,08664;68,37968;0,00044
1,40000;0,09336;70,43522;0,00045
1,50000;0,10003;71,73559;0,00047
1,60000;0,10667;72,78215;0,00047
1,70000;0,11330;72,32467;0,00048
1,80000;0,11997;72,71322;0,00048
1,90000;0,12664;72,85109;0,00048
2,00000;0,13330;74,12325;0,00049
2,10000;0,14003;74,03552;0,00049
2,20000;0,14667;73,31170;0,00049
2,30000;0,15328;74,92541;0,00050
2,40000;0,15994;75,63983;0,00050
2,50000;0,16667;75,06642;0,00050
2,60000;0,17333;75,83097;0,00050
2,70000;0,18003;75,11341;0,00050
2,80000;0,18672;75,51763;0,00050
2,90000;0,19339;76,36365;0,00051
3,00000;0,19997;76,18192;0,00051
3,10000;0,20667;77,04047;0,00052
3,20000;0,21333;76,50779;0,00052
3,30000;0,21991;78,37844;0,00052
3,40000;0,22664;78,50066;0,00052
3,50000;0,23336;77,43215;0,00053
3,60000;0,24003;78,47245;0,00053
3,70000;0,24664;77,30682;0,00053
3,80000;0,25333;77,14701;0,00053
3,90000;0,26000;78,09018;0,00054
4,00000;0,26661;76,79920;0,00054
4,10000;0,27336;78,03064;0,00054
4,20000;0,28003;77,40082;0,00054
4,30000;0,28667;77,12195;0,00054
4,40000;0,29333;78,18417;0,00054
4,50000;0,30000;76,89947;0,00054
4,60000;0,30667;77,86143;0,00055
4,70000;0,31330;77,13134;0,00055
4,80000;0,32000;77,34755;0,00055
4,90000;0,32672;77,83950;0,00055
5,00000;0,33333;78,16224;0,00055
5,10000;0,34003;78,46619;0,00056
5,20000;0,34669;78,66672;0,00056
5,30000;0,35328;79,30280;0,00057
5,40000;0,35994;80,33684;0,00057
5,50000;0,36667;79,47201;0,00057
5,60000;0,37336;80,48725;0,00058
5,70000;0,38003;79,77595;0,00058
5,80000;0,38669;80,05169;0,00058
5,90000;0,39339;80,36190;0,00059
6,00000;0,39997;80,29611;0,00060
6,10000;0,40667;82,58664;0,00060
6,20000;0,41333;82,27642;0,00061
6,30000;0,41994;82,27016;0,00062
6,40000;0,42664;84,05308;0,00062
6,50000;0,43333;83,81180;0,00063
6,60000;0,44003;83,79300;0,00063
6,70000;0,44664;84,23482;0,00064
6,80000;0,45333;84,49176;0,00065
6,90000;0,46000;85,08085;0,00066
7,00000;0,46667;86,89510;0,00067
7,10000;0,47339;88,40854;0,00068
7,20000;0,48006;89,55537;0,00069
7,30000;0,48664;92,25325;0,00071
7,40000;0,49333;95,79716;0,00074
7,50000;0,50000;99,75154;0,00077
7,60000;0,50667;104,29501;0,00081
7,70000;0,51330;110,17645;0,00084
7,80000;0,51997;115,55654;0,00089
7,90000;0,52667;121,48184;0,00093
8,00000;0,53330;126,60187;0,00097
8,10000;0,54000;132,62745;0,00101
8,20000;0,54667;137,71612;0,00105
8,30000;0,55328;143,83884;0,00109
8,40000;0,55997;149,05286;0,00113
8,50000;0,56669;154,49562;0,00117
8,60000;0,57336;160,33320;0,00121
8,70000;0,58000;165,62869;0,00126
8,80000;0,58669;171,44119;0,00130
8,90000;0,59336;176,47661;0,00134
9,00000;0,59997;182,56798;0,00138
9,10000;0,60669;188,42436;0,00142
9,20000;0,61339;193,01795;0,00147
9,30000;0,61997;199,83316;0,00151
9,40000;0,62664;204,12281;0,00155
9,50000;0,63336;209,12376;0,00159
9,60000;0,64000;215,03340;0,00164
9,70000;0,64661;219,66461;0,00168
9,80000;0,65333;224,33340;0,00172
9,90000;0,66000;229,90778;0,00176
10,00000;0,66667;235,26594;0,00181
10,10000;0,67333;240,92176;0,00185
10,20000;0,68003;245,82243;0,00189
10,30000;0,68664;250,78265;0,00193
10,40000;0,69333;255,04411;0,00197
10,50000;0,70003;260,96001;0,00201
10,60000;0,70669;266,16463;0,00205
10,70000;0,71330;270,88043;0,00209
10,80000;0,71997;276,10699;0,00213
10,90000;0,72667;280,26819;0,00217
11,00000;0,73330;285,14380;0,00221
11,10000;0,74003;290,74010;0,00225
11,20000;0,74669;294,69447;0,00229
11,30000;0,75333;300,44117;0,00233
11,40000;0,76003;303,68741;0,00237
11,50000;0,76669;308,61942;0,00241
11,60000;0,77336;312,80254;0,00245
11,70000;0,77997;316,85093;0,00248
11,80000;0,78667;321,27532;0,00252
11,90000;0,79333;325,79058;0,00256
12,00000;0,79994;329,69485;0,00260
12,10000;0,80667;334,58925;0,00264
12,20000;0,81333;338,12376;0,00267
12,30000;0,81994;343,73573;0,00271
12,40000;0,82664;348,39199;0,00275
12,50000;0,83336;352,81952;0,00279
12,60000;0,84003;356,92430;0,00283
12,70000;0,84667;361,55866;0,00287
12,80000;0,85336;366,87921;0,00291
12,90000;0,86006;371,76735;0,00295
13,00000;0,86664;375,43345;0,00300
13,10000;0,87333;381,27729;0,00303
13,20000;0,88003;385,25674;0,00307
13,30000;0,88667;389,99449;0,00311
13,40000;0,89336;393,94572;0,00315
13,50000;0,90006;397,96904;0,00319
13,60000;0,90667;402,08008;0,00323
13,70000;0,91328;406,22563;0,00327
13,80000;0,91997;410,72834;0,00330
13,90000;0,92664;413,68003;0,00334
14,00000;0,93328;417,63443;0,00337
14,10000;0,94000;422,33770;0,00341
14,20000;0,94669;426,09465;0,00344
14,30000;0,95333;429,65738;0,00347
14,40000;0,96000;433,38928;0,00351
14,50000;0,96669;436,74516;0,00355
14,60000;0,97336;440,94082;0,00358
14,70000;0,97997;444,32809;0,00361
14,80000;0,98669;448,30437;0,00365
14,90000;0,99336;452,28070;0,00369
15,00000;0,99997;456,35104;0,00372
15,10000;1,00664;460,43387;0,00375
15,20000;1,01333;462,82467;0,00379
15,30000;1,01991;466,75401;0,00382
15,40000;1,02661;470,51725;0,00386
15,50000;1,03333;474,00789;0,00389
15,60000;1,04006;478,25682;0,00392
15,70000;1,04669;481,17717;0,00396
15,80000;1,05336;484,58944;0,00399
15,90000;1,06003;488,68796;0,00403
16,00000;1,06664;492,48254;0,00406
16,10000;1,07336;496,54036;0,00409
16,20000;1,08003;500,29107;0,00413
16,30000;1,08667;503,06413;0,00416
16,40000;1,09336;507,05611;0,00420
16,50000;1,10000;510,01720;0,00423
16,60000;1,10669;514,76122;0,00427
16,70000;1,11330;517,56878;0,00430
16,80000;1,11997;522,24384;0,00433
16,90000;1,12667;525,75953;0,00437
17,00000;1,13333;528,29450;0,00440
17,10000;1,14003;532,38361;0,00444
17,20000;1,14669;535,58596;0,00447
17,30000;1,15330;539,69077;0,00450
17,40000;1,15997;542,99338;0,00453
17,50000;1,16667;546,19573;0,00457
17,60000;1,17333;550,35381;0,00460
17,70000;1,18000;553,61255;0,00463
17,80000;1,18669;556,41383;0,00467
17,90000;1,19336;560,59696;0,00470
18,00000;1,20000;563,68965;0,00474
18,10000;1,20667;566,93275;0,00477
18,20000;1,21333;570,90907;0,00480
18,30000;1,21991;574,34016;0,00484
18,40000;1,22664;577,49241;0,00487
18,50000;1,23339;580,72298;0,00490
18,60000;1,24006;584,95621;0,00493
18,70000;1,24667;587,46296;0,00497
18,80000;1,25333;590,87211;0,00500
18,90000;1,26003;594,42855;0,00503
19,00000;1,26664;598,02886;0,00506
19,10000;1,27333;601,38474;0,00509
19,20000;1,28003;604,49312;0,00513
19,30000;1,28664;607,51690;0,00516
19,40000;1,29330;611,01378;0,00519
19,50000;1,30000;613,66153;0,00522
19,60000;1,30667;617,47804;0,00525
19,70000;1,31330;620,95928;0,00529
19,80000;1,32000;623,64778;0,00532
19,90000;1,32672;627,44231;0,00535
20,00000;1,33333;630,98939;0,00538
20,10000;1,34003;633,91286;0,00542
20,20000;1,34669;635,81797;0,00545
20,30000;1,35330;639,92278;0,00548
20,40000;1,35997;643,63587;0,00551
20,50000;1,36667;645,49712;0,00554
20,60000;1,37336;649,63014;0,00557
20,70000;1,37997;651,98331;0,00560
20,80000;1,38669;655,08853;0,00563
20,90000;1,39336;658,30345;0,00566
21,00000;1,39997;661,73142;0,00569
21,10000;1,40664;665,23459;0,00572
21,20000;1,41330;667,33398;0,00576
21,30000;1,41994;670,49875;0,00579
21,40000;1,42666;674,23689;0,00582
21,50000;1,43339;676,93167;0,00585
21,60000;1,44003;680,15284;0,00588
21,70000;1,44667;683,55259;0,00591
21,80000;1,45333;685,99666;0,00594
21,90000;1,46003;689,48730;0,00597
22,00000;1,46667;693,27559;0,00600
22,10000;1,47339;695,07104;0,00603
22,20000;1,48003;698,04466;0,00606
22,30000;1,48664;701,85806;0,00609
22,40000;1,49333;704,16112;0,00613
22,50000;1,50000;707,85228;0,00615
22,60000;1,50664;711,20192;0,00618
22,70000;1,51327;713,55826;0,00622
22,80000;1,51997;716,73868;0,00625
22,90000;1,52666;719,25484;0,00628
23,00000;1,53330;722,82068;0,00631
23,10000;1,54003;726,40846;0,00634
23,20000;1,54669;728,61440;0,00637
23,30000;1,55330;731,45637;0,00640
23,40000;1,56000;735,04732;0,00643
23,50000;1,56669;738,00525;0,00646
23,60000;1,57336;740,26757;0,00649
23,70000;1,57997;744,25959;0,00653
23,80000;1,58669;747,61859;0,00656
23,90000;1,59336;750,06895;0,00659
24,00000;1,59997;754,20192;0,00662
24,10000;1,60669;756,39845;0,00665
24,20000;1,61336;758,98352;0,00668
24,30000;1,61997;763,12278;0,00671
24,40000;1,62666;764,34170;0,00674
24,50000;1,63336;767,51588;0,00677
24,60000;1,64003;771,13812;0,00681
24,70000;1,64664;774,46578;0,00684
24,80000;1,65333;776,82212;0,00687
24,90000;1,66003;780,83291;0,00690
25,00000;1,66666;783,82222;0,00693
25,10000;1,67336;786,54513;0,00696
25,20000;1,68003;789,15842;0,00699
25,30000;1,68664;792,34196;0,00702
25,40000;1,69330;794,73900;0,00705
25,50000;1,70000;798,01343;0,00708
25,60000;1,70669;800,98081;0,00711
25,70000;1,71330;804,35555;0,00714
25,80000;1,72000;806,60218;0,00717
25,90000;1,72666;810,20873;0,00721
26,00000;1,73327;814,26967;0,00724
26,10000;1,74000;816,47243;0,00727
26,20000;1,74669;819,14216;0,00730
26,30000;1,75330;822,19727;0,00733
26,40000;1,76000;825,87898;0,00736
26,50000;1,76669;828,60198;0,00740
26,60000;1,77333;831,25597;0,00743
26,70000;1,77997;834,35178;0,00746
26,80000;1,78666;837,74216;0,00749
26,90000;1,79336;839,93869;0,00752
27,00000;1,80000;843,58910;0,00755
27,10000;1,80669;846,30270;0,00758
27,20000;1,81336;849,09145;0,00761
27,30000;1,81997;852,39410;0,00764
27,40000;1,82664;855,72172;0,00767
27,50000;1,83333;857,55792;0,00771
27,60000;1,84003;861,07366;0,00774
27,70000;1,84664;864,98419;0,00777
27,80000;1,85336;867,24646;0,00780
27,90000;1,86003;870,34861;0,00783
28,00000;1,86664;873,50085;0,00786
28,10000;1,87333;876,66241;0,00789
28,20000;1,88003;878,47980;0,00793
28,30000;1,88664;881,68532;0,00796
28,40000;1,89336;884,21404;0,00799
28,50000;1,90005;888,14022;0,00802
28,60000;1,90672;889,74759;0,00805
28,70000;1,91333;892,91548;0,00808
28,80000;1,92000;895,77949;0,00811
28,90000;1,92666;899,63982;0,00814
29,00000;1,93330;902,32836;0,00817
29,10000;1,94003;905,11078;0,00821
29,20000;1,94669;907,40444;0,00824
29,30000;1,95330;910,76978;0,00827
29,40000;1,95997;914,11630;0,00830
29,50000;1,96669;915,96497;0,00833
29,60000;1,97333;919,47448;0,00836
29,70000;1,97997;922,33839;0,00839
29,80000;1,98669;925,10208;0,00842
29,90000;1,99339;928,30760;0,00846
30,00000;2,00000;932,04258;0,00849
30,10000;2,00669;934,10751;0,00852
30,20000;2,01336;936,59237;0,00855
30,30000;2,01997;939,68194;0,00858
30,40000;2,02666;942,53644;0,00861
30,50000;2,03339;945,54769;0,00865
30,60000;2,04005;947,92284;0,00868
30,70000;2,04666;951,18787;0,00871
30,80000;2,05333;954,77244;0,00874
30,90000;2,06003;956,80291;0,00877
31,00000;2,06661;959,83613;0,00880
31,10000;2,07330;962,48388;0,00884
31,20000;2,08000;965,95567;0,00887
31,30000;2,08664;968,35271;0,00890
31,40000;2,09336;971,96558;0,00893
31,50000;2,10003;974,66661;0,00897
31,60000;2,10669;977,95669;0,00900
31,70000;2,11330;980,05608;0,00903
31,80000;2,11997;983,19575;0,00906
31,90000;2,12664;985,99391;0,00909
32,00000;2,13330;989,14932;0,00912
32,10000;2,14003;992,58665;0,00915
32,20000;2,14669;994,89596;0,00918
32,30000;2,15330;998,16099;0,00922
32,40000;2,16000;1000,60822;0,00925
32,50000;2,16669;1004,92295;0,00928
32,60000;2,17336;1006,73409;0,00931
32,70000;2,18003;1010,24350;0,00935
32,80000;2,18672;1012,95710;0,00938
32,90000;2,19339;1015,52643;0,00941
33,00000;2,19997;1018,60976;0,00944
33,10000;2,20666;1022,00955;0,00947
33,20000;2,21330;1024,37213;0,00951
33,30000;2,21991;1026,84442;0,00954
33,40000;2,22664;1029,44514;0,00957
33,50000;2,23336;1033,21783;0,00960
33,60000;2,24003;1035,59922;0,00963
33,70000;2,24664;1037,57950;0,00967
33,80000;2,25333;1041,42735;0,00970
33,90000;2,26003;1044,68614;0,00973
34,00000;2,26664;1048,21436;0,00976
34,10000;2,27336;1050,31691;0,00979
34,20000;2,28005;1052,65127;0,00982
34,30000;2,28669;1055,91631;0,00986
34,40000;2,29333;1059,32551;0,00989
34,50000;2,30003;1061,74136;0,00992
34,60000;2,30666;1065,20383;0,00995
34,70000;2,31330;1067,17469;0,00999
34,80000;2,32000;1070,59013;0,01002
34,90000;2,32669;1073,55751;0,01005
35,00000;2,33330;1076,86017;0,01008
35,10000;2,34000;1079,01907;0,01011
35,20000;2,34666;1081,90179;0,01014
35,30000;2,35327;1084,74381;0,01018
35,40000;2,35994;1087,19729;0,01021
35,50000;2,36666;1091,00444;0,01024
35,60000;2,37336;1094,09401;0,01027
35,70000;2,38003;1096,82949;0,01031
35,80000;2,38672;1099,43021;0,01034
35,90000;2,39339;1101,82101;0,01037
36,00000;2,40000;1104,26825;0,01040
36,10000;2,40666;1108,09095;0,01044
36,20000;2,41333;1110,15905;0,01047
36,30000;2,41994;1113,68420;0,01050
36,40000;2,42664;1115,57990;0,01053
36,50000;2,43333;1119,23655;0,01057
36,60000;2,44003;1121,91252;0,01060
36,70000;2,44664;1124,81406;0,01063
36,80000;2,45330;1127,31457;0,01066
36,90000;2,46000;1129,70220;0,01070
37,00000;2,46666;1133,49995;0,01073
37,10000;2,47336;1135,90015;0,01076
37,20000;2,48003;1138,35046;0,01079
37,30000;2,48664;1141,28022;0,01083
37,40000;2,49333;1144,22254;0,01086
37,50000;2,50003;1147,35905;0,01089
37,60000;2,50669;1149,64340;0,01092
37,70000;2,51330;1152,88021;0,01096
37,80000;2,52000;1155,38696;0,01099
37,90000;2,52666;1158,19443;0,01102
38,00000;2,53327;1161,12111;0,01105
38,10000;2,54000;1164,65250;0,01109
38,20000;2,54669;1167,43492;0,01112
38,30000;2,55327;1169,46539;0,01115
38,40000;2,55997;1171,92827;0,01119
38,50000;2,56669;1175,24974;0,01122
38,60000;2,57336;1178,04790;0,01125
38,70000;2,57997;1181,39125;0,01128
38,80000;2,58666;1183,87919;0,01132
38,90000;2,59333;1186,61774;0,01135
39,00000;2,59997;1189,65721;0,01138
39,10000;2,60669;1192,35199;0,01142
39,20000;2,61339;1194,76784;0,01145
39,30000;2,61997;1197,34351;0,01148
39,40000;2,62666;1200,16672;0,01151
39,50000;2,63339;1202,76744;0,01155
39,60000;2,64003;1205,86017;0,01158
39,70000;2,64663;1209,34136;0,01162
39,80000;2,65333;1212,08308;0,01165
39,90000;2,66003;1213,93185;0,01168
40,00000;2,66666;1217,37858;0,01171
40,10000;2,67333;1220,86294;0,01175
40,20000;2,68003;1223,51386;0,01178
40,30000;2,68664;1225,79811;0,01182
40,40000;2,69330;1228,66211;0,01185
40,50000;2,70000;1231,81427;0,01188
40,60000;2,70666;1235,17960;0,01192
40,70000;2,71330;1237,91825;0,01195
40,80000;2,71997;1239,92674;0,01198
40,90000;2,72666;1242,31754;0,01202
41,00000;2,73330;1244,48277;0,01205
41,10000;2,74000;1248,47470;0,01208
41,20000;2,74669;1251,42019;0,01212
41,30000;2,75330;1254,67889;0,01215
41,40000;2,76000;1256,79085;0,01218
41,50000;2,76669;1259,55455;0,01222
41,60000;2,77336;1263,03891;0,01225
41,70000;2,77997;1266,23809;0,01228
41,80000;2,78666;1268,11191;0,01232
41,90000;2,79333;1271,40824;0,01235
42,00000;2,79997;1274,48216;0,01238
42,10000;2,80669;1277,17694;0,01242
42,20000;2,81333;1278,89402;0,01245
42,30000;2,81994;1282,17470;0,01248
42,40000;2,82663;1285,23922;0,01252
42,50000;2,83336;1288,28492;0,01255
42,60000;2,84003;1290,68196;0,01259
42,70000;2,84666;1292,80016;0,01262
42,80000;2,85336;1296,11846;0,01265
42,90000;2,86005;1298,88840;0,01269
43,00000;2,86666;1301,20404;0,01272
43,10000;2,87336;1304,31550;0,01276
43,20000;2,88003;1306,52459;0,01279
43,30000;2,88664;1309,73011;0,01282
43,40000;2,89336;1312,33083;0,01286
43,50000;2,90005;1314,52736;0,01289
43,60000;2,90666;1318,35015;0,01292
43,70000;2,91327;1320,26151;0,01296
43,80000;2,91997;1322,38287;0,01299
43,90000;2,92663;1325,29065;0,01302
44,00000;2,93327;1328,07316;0,01306
44,10000;2,94003;1331,74863;0,01309
44,20000;2,94669;1333,11478;0,01313
44,30000;2,95333;1336,48012;0,01316
44,40000;2,96003;1339,47879;0,01320
44,50000;2,96672;1341,89781;0,01323
44,60000;2,97336;1344,41713;0,01326
44,70000;2,98000;1348,08319;0,01330
44,80000;2,98669;1350,33615;0,01333
44,90000;2,99339;1351,96242;0,01337
45,00000;2,99997;1355,40599;0,01340
45,10000;3,00663;1358,60210;0,01343
45,20000;3,01333;1361,28748;0,01347
45,30000;3,01991;1363,68135;0,01350
45,40000;3,02661;1365,79331;0,01354
45,50000;3,03333;1369,77276;0,01357
45,60000;3,04002;1371,40844;0,01361
45,70000;3,04669;1375,09331;0,01364
45,80000;3,05336;1376,97654;0,01368
45,90000;3,06003;1379,72450;0,01371
46,00000;3,06666;1382,82347;0,01374
46,10000;3,07336;1385,95067;0,01378
46,20000;3,08002;1387,10691;0,01381
46,30000;3,08666;1390,06488;0,01385
46,40000;3,09333;1393,80619;0,01388
46,50000;3,10000;1396,77040;0,01392
46,60000;3,10669;1397,99556;0,01395
46,70000;3,11330;1401,27940;0,01398
46,80000;3,11997;1403,76734;0,01402
46,90000;3,12666;1407,23605;0,01406
47,00000;3,13330;1409,20384;0,01409
47,10000;3,14003;1412,15231;0,01413
47,20000;3,14669;1414,16714;0,01416
47,30000;3,15330;1417,52930;0,01420
47,40000;3,15997;1419,45947;0,01423
47,50000;3,16669;1423,00967;0,01427
47,60000;3,17336;1425,89873;0,01430
47,70000;3,18002;1428,10466;0,01433
47,80000;3,18672;1430,26039;0,01437
47,90000;3,19339;1433,93595;0,01440
48,00000;3,19997;1436,06039;0,01444
48,10000;3,20666;1439,71080;0,01448
48,20000;3,21333;1441,22113;0,01451
48,30000;3,21991;1443,58063;0,01454
48,40000;3,22663;1447,04934;0,01458
48,50000;3,23336;1449,84433;0,01462
48,60000;3,24005;1451,69618;0,01465
48,70000;3,24666;1455,33094;0,01469
48,80000;3,25333;1457,86274;0,01472
48,90000;3,26000;1460,61387;0,01476
49,00000;3,26661;1462,53472;0,01479
49,10000;3,27333;1465,01325;0,01483
49,20000;3,28002;1468,13104;0,01486
49,30000;3,28663;1471,45241;0,01490
49,40000;3,29330;1473,92470;0,01493
49,50000;3,30000;1476,83248;0,01497
49,60000;3,30669;1479,92522;0,01501
49,70000;3,31330;1481,76458;0,01504
49,80000;3,32000;1484,17726;0,01507
49,90000;3,32672;1486,49598;0,01511
50,00000;3,33336;1488,84291;0,01514
50,10000;3,34005;1491,71939;0,01518
50,20000;3,34669;1494,79331;0,01522
50,30000;3,35330;1497,60712;0,01525
50,40000;3,35997;1499,72532;0,01529
50,50000;3,36669;1502,98094;0,01532
50,60000;3,37336;1505,53472;0,01536
50,70000;3,37997;1507,93493;0,01539
50,80000;3,38666;1510,07194;0,01543
50,90000;3,39336;1512,72593;0,01547
51,00000;3,39997;1515,51152;0,01550
51,10000;3,40663;1518,27838;0,01554
51,20000;3,41330;1520,50620;0,01557
51,30000;3,41994;1523,45477;0,01561
51,40000;3,42666;1525,77041;0,01565
51,50000;3,43339;1528,64372;0,01568
51,60000;3,44005;1531,41683;0,01572
51,70000;3,44666;1534,15538;0,01575
51,80000;3,45333;1536,26418;0,01579
51,90000;3,46002;1539,41959;0,01582
52,00000;3,46666;1541,64433;0,01586
52,10000;3,47339;1544,53646;0,01590
52,20000;3,48002;1546,39455;0,01593
52,30000;3,48663;1549,12379;0,01597
52,40000;3,49330;1552,14127;0,01600
52,50000;3,50000;1554,64178;0,01604
52,60000;3,50666;1557,77521;0,01608
52,70000;3,51330;1559,65835;0,01611
52,80000;3,52000;1562,57860;0,01615
52,90000;3,52666;1564,75008;0,01618
53,00000;3,53330;1567,19740;0,01622
53,10000;3,54000;1570,35273;0,01626
53,20000;3,54669;1572,75293;0,01629
53,30000;3,55330;1574,97451;0,01633
53,40000;3,56000;1578,03278;0,01637
53,50000;3,56669;1581,13800;0,01640
53,60000;3,57336;1582,91142;0,01644
53,70000;3,57997;1585,28034;0,01648
53,80000;3,58669;1587,56468;0,01651
53,90000;3,59336;1589,57634;0,01655
54,00000;3,59994;1592,51541;0,01658
54,10000;3,60669;1595,63310;0,01662
54,20000;3,61339;1596,83954;0,01666
54,30000;3,61997;1600,40539;0,01670
54,40000;3,62666;1604,15303;0,01673
54,50000;3,63336;1605,70089;0,01677
54,60000;3,64002;1608,08545;0,01680
54,70000;3,64663;1610,36346;0,01684
54,80000;3,65333;1613,00804;0,01687
54,90000;3,66002;1615,44587;0,01691
55,00000;3,66663;1617,43555;0,01695
55,10000;3,67333;1621,27092;0,01699
55,20000;3,68002;1623,27308;0,01703
55,30000;3,68666;1625,70458;0,01706
55,40000;3,69333;1628,66581;0,01710
55,50000;3,70002;1630,38913;0,01714
55,60000;3,70669;1634,33105;0,01718
55,70000;3,71333;1636,35202;0,01721
55,80000;3,72000;1638,65201;0,01725
55,90000;3,72669;1641,48137;0,01729
56,00000;3,73330;1643,84414;0,01733
56,10000;3,74002;1646,57328;0,01736
56,20000;3,74669;1648,99863;0,01740
56,30000;3,75333;1651,29527;0,01743
56,40000;3,76000;1653,67369;0,01747
56,50000;3,76669;1656,20539;0,01751
56,60000;3,77336;1658,67135;0,01755
56,70000;3,77997;1661,59812;0,01758
56,80000;3,78663;1663,69118;0,01762
56,90000;3,79333;1665,88146;0,01766
57,00000;3,79997;1668,47911;0,01770
57,10000;3,80669;1671,58116;0,01773
57,20000;3,81336;1673,54271;0,01777
57,30000;3,81997;1675,89895;0,01781
57,40000;3,82666;1678,84436;0,01785
57,50000;3,83336;1681,18831;0,01789
57,60000;3,84002;1683,72318;0,01793
57,70000;3,84666;1685,94159;0,01796
57,80000;3,85336;1687,81225;0,01800
57,90000;3,86000;1691,49712;0,01804
58,00000;3,86663;1692,82574;0,01808
58,10000;3,87333;1696,05315;0,01811
58,20000;3,88002;1698,41573;0,01815
58,30000;3,88663;1700,76899;0,01819
58,40000;3,89336;1703,27257;0,01823
58,50000;3,90005;1705,06798;0,01827
58,60000;3,90669;1707,50897;0,01830
58,70000;3,91330;1709,91551;0,01834
58,80000;3,91997;1712,05252;0,01838
58,90000;3,92666;1714,75038;0,01842
59,00000;3,93330;1716,80581;0,01845
59,10000;3,94002;1719,91102;0,01849
59,20000;3,94672;1721,44957;0,01853
59,30000;3,95330;1723,62421;0,01857
59,40000;3,96000;1726,48821;0,01861
59,50000;3,96669;1730,43944;0,01865
59,60000;3,97336;1732,03424;0,01869
59,70000;3,97997;1733,14661;0,01873
59,80000;3,98669;1735,84148;0,01877
59,90000;3,99339;1738,27615;0,01881
60,00000;4,00000;1741,21521;0,01885
60,10000;4,00669;1743,54333;0,01888
60,20000;4,01333;1745,54251;0,01892
60,30000;4,01994;1747,71715;0,01896
60,40000;4,02660;1750,26767;0,01900
60,50000;4,03336;1753,39803;0,01904
60,60000;4,04005;1755,22473;0,01908
60,70000;4,04669;1757,49660;0,01911
60,80000;4,05336;1759,79640;0,01915
60,90000;4,06002;1762,11204;0,01919
61,00000;4,06663;1764,13935;0,01923
61,10000;4,07333;1767,56736;0,01927
61,20000;4,08002;1769,11224;0,01931
61,30000;4,08666;1771,17717;0,01935
61,40000;4,09336;1774,38576;0,01938
61,50000;4,10005;1775,90232;0,01942
61,60000;4,10669;1778,26490;0,01946
61,70000;4,11330;1779,86287;0,01950
61,80000;4,11997;1782,64864;0,01954
61,90000;4,12666;1785,10193;0,01957
62,00000;4,13330;1787,16686;0,01961
62,10000;4,14000;1789,80213;0,01965
62,20000;4,14666;1791,57890;0,01969
62,30000;4,15327;1794,35182;0,01973
62,40000;4,15997;1796,27575;0,01977
62,50000;4,16669;1799,29025;0,01981
62,60000;4,17336;1801,48985;0,01985
62,70000;4,18002;1803,77103;0,01989
62,80000;4,18672;1805,76071;0,01993
62,90000;4,19339;1807,89456;0,01997
63,00000;4,20000;1810,00344;0,02001
63,10000;4,20666;1813,17758;0,02005
63,20000;4,21333;1814,49987;0,02009
63,30000;4,21994;1816,64303;0,02013
63,40000;4,22663;1819,92371;0,02017
63,50000;4,23336;1821,43096;0,02021
63,60000;4,24002;1823,81552;0,02025
63,70000;4,24663;1825,56082;0,02029
63,80000;4,25333;1827,86696;0,02033
63,90000;4,26000;1830,31429;0,02037
64,00000;4,26660;1832,36655;0,02041
64,10000;4,27333;1835,96388;0,02044
64,20000;4,28002;1837,09804;0,02049
64,30000;4,28669;1839,96838;0,02052
64,40000;4,29336;1842,24322;0,02056
64,50000;4,30002;1843,99784;0,02060
64,60000;4,30669;1846,60796;0,02064
64,70000;4,31330;1848,49426;0,02068
64,80000;4,31999;1850,82871;0,02072
64,90000;4,32672;1852,50193;0,02076
65,00000;4,33333;1854,89599;0,02080
65,10000;4,33999;1857,32748;0,02085
65,20000;4,34669;1860,14138;0,02088
65,30000;4,35327;1861,89916;0,02092
65,40000;4,35994;1863,76348;0,02096
65,50000;4,36666;1866,31102;0,02100
65,60000;4,37336;1869,06531;0,02105
65,70000;4,38002;1870,73853;0,02109
65,80000;4,38669;1872,10776;0,02113
65,90000;4,39336;1875,78965;0,02117
66,00000;4,39999;1877,19334;0,02121
66,10000;4,40669;1879,47769;0,02125
66,20000;4,41336;1881,56143;0,02129
66,30000;4,41997;1884,06501;0,02133
66,40000;4,42666;1885,82279;0,02137
66,50000;4,43336;1887,92851;0,02141
66,60000;4,44002;1890,17523;0,02145
66,70000;4,44666;1892,02074;0,02149
66,80000;4,45333;1894,63403;0,02154
66,90000;4,45999;1897,34455;0,02158
67,00000;4,46666;1899,69148;0,02162
67,10000;4,47339;1902,56797;0,02166
67,20000;4,48002;1903,51419;0,02170
67,30000;4,48663;1905,43812;0,02174
67,40000;4,49330;1908,39283;0,02178
67,50000;4,49999;1909,97217;0,02182
67,60000;4,50666;1911,59844;0,02187
67,70000;4,51327;1913,37503;0,02191
67,80000;4,51999;1915,67186;0,02195
67,90000;4,52669;1918,36357;0,02199
68,00000;4,53333;1919,98035;0,02203
68,10000;4,54005;1922,73781;0,02207
68,20000;4,54669;1923,51788;0,02211
68,30000;4,55330;1927,10254;0,02215
68,40000;4,55999;1928,74447;0,02220
68,50000;4,56669;1930,90662;0,02224
68,60000;4,57336;1933,12187;0,02228
68,70000;4,57999;1935,73516;0,02232
68,80000;4,58669;1937,22676;0,02237
68,90000;4,59338;1938,65877;0,02241
69,00000;4,59997;1941,20612;0,02245
69,10000;4,60669;1943,23976;0,02249
69,20000;4,61336;1945,21379;0,02253
69,30000;4,61994;1947,10009;0,02257
69,40000;4,62660;1948,93014;0,02261
69,50000;4,63333;1951,60601;0,02266
69,60000;4,64002;1953,42340;0,02270
69,70000;4,64663;1955,66695;0,02274
69,80000;4,65333;1957,66296;0,02278
69,90000;4,66002;1959,70275;0,02283
70,00000;4,66669;1962,72656;0,02287
70,10000;4,67338;1963,41909;0,02291
70,20000;4,68005;1965,28658;0,02295
70,30000;4,68666;1967,45172;0,02300
70,40000;4,69333;1969,84876;0,02304
70,50000;4,69999;1971,66931;0,02308
70,60000;4,70669;1973,60255;0,02312
70,70000;4,71330;1975,58925;0,02316
70,80000;4,71997;1977,34088;0,02321
70,90000;4,72663;1978,66634;0,02325
71,00000;4,73327;1980,85643;0,02329
71,10000;4,73997;1983,86777;0,02334
71,20000;4,74666;1984,91439;0,02338
71,30000;4,75330;1987,49304;0,02342
71,40000;4,76002;1989,41082;0,02347
71,50000;4,76672;1991,13730;0,02351
71,60000;4,77338;1992,85448;0,02355
71,70000;4,77999;1994,79088;0,02359
71,80000;4,78669;1997,76143;0,02364
71,90000;4,79336;1999,47227;0,02368
72,00000;4,79999;2001,08904;0,02372
72,10000;4,80666;2002,27983;0,02377
72,20000;4,81333;2004,77075;0,02381
72,30000;4,81994;2006,59763;0,02385
72,40000;4,82663;2008,10470;0,02389
72,50000;4,83333;2010,55519;0,02394
72,60000;4,83999;2012,17514;0,02398
72,70000;4,84663;2014,01748;0,02402
72,80000;4,85333;2016,10755;0,02407
72,90000;4,85999;2018,66124;0,02411
73,00000;4,86663;2020,26553;0,02416
73,10000;4,87333;2022,11440;0,02420
73,20000;4,88002;2023,81257;0,02425
73,30000;4,88666;2025,60816;0,02429
73,40000;4,89338;2027,48813;0,02433
73,50000;4,90008;2029,44037;0,02438
73,60000;4,90669;2031,00070;0,02442
73,70000;4,91330;2033,62647;0,02446
73,80000;4,91997;2035,17750;0,02451
73,90000;4,92663;2036,64713;0,02455
74,00000;4,93327;2037,93813;0,02459
74,10000;4,93999;2041,41941;0,02464
74,20000;4,94669;2042,61951;0,02468
74,30000;4,95330;2044,52779;0,02473
74,40000;4,95999;2045,99425;0,02477
74,50000;4,96669;2048,04335;0,02482
74,60000;4,97336;2050,43424;0,02486
74,70000;4,97997;2051,14558;0,02490
74,80000;4,98666;2053,65531;0,02495
74,90000;4,99336;2055,36634;0,02500
75,00000;4,99999;2056,87024;0,02504
75,10000;5,00666;2059,49917;0,02508
75,20000;5,01336;2060,25746;0,02512
75,30000;5,01997;2062,12811;0,02517
75,40000;5,02663;2062,98679;0,02521
75,50000;5,03336;2066,18588;0,02526
75,60000;5,04005;2068,02841;0,02530
75,70000;5,04672;2068,97464;0,02535
75,80000;5,05336;2071,70397;0,02539
75,90000;5,06002;2072,62207;0,02544
76,00000;5,06663;2074,59610;0,02549
76,10000;5,07333;2077,50071;0,02553
76,20000;5,08002;2078,60060;0,02558
76,30000;5,08663;2079,85081;0,02562
76,40000;5,09333;2081,72780;0,02567
76,50000;5,10002;2083,27565;0,02571
76,60000;5,10669;2085,90776;0,02576
76,70000;5,11330;2086,72248;0,02580
76,80000;5,11997;2088,66522;0,02585
76,90000;5,12666;2090,38537;0,02589
77,00000;5,13330;2092,31246;0,02594
77,10000;5,14002;2094,55919;0,02599
77,20000;5,14669;2096,04129;0,02604
77,30000;5,15330;2097,57667;0,02608
77,40000;5,15994;2098,87698;0,02613
77,50000;5,16666;2100,30898;0,02617
77,60000;5,17336;2102,98486;0,02622
77,70000;5,18002;2104,75847;0,02627
77,80000;5,18675;2105,50427;0,02632
77,90000;5,19341;2107,04897;0,02636
78,00000;5,19999;2109,62147;0,02641
78,10000;5,20666;2112,40090;0,02646
78,20000;5,21333;2112,83639;0,02650
78,30000;5,21994;2113,92678;0,02655
78,40000;5,22663;2115,66593;0,02660
78,50000;5,23336;2117,63047;0,02664
78,60000;5,24002;2119,29437;0,02669
78,70000;5,24666;2120,59785;0,02673
78,80000;5,25333;2122,33383;0,02678
78,90000;5,26002;2124,06348;0,02683
79,00000;5,26663;2124,87504;0,02687
79,10000;5,27333;2128,39693;0,02692
79,20000;5,28002;2128,76052;0,02697
79,30000;5,28666;2129,93864;0,02702
79,40000;5,29333;2132,22913;0,02706
79,50000;5,30002;2134,04335;0,02711
79,60000;5,30669;2135,27493;0,02716
79,70000;5,31330;2137,19252;0,02720
79,80000;5,31999;2138,69028;0,02725
79,90000;5,32672;2139,28875;0,02730
80,00000;5,33336;2141,49468;0,02735
80,10000;5,34005;2143,01441;0,02739
80,20000;5,34669;2144,07034;0,02744
80,30000;5,35330;2145,41461;0,02749
80,40000;5,35997;2147,01276;0,02753
80,50000;5,36666;2148,75489;0,02758
80,60000;5,37336;2151,35254;0,02763
80,70000;5,37997;2151,72227;0,02768
80,80000;5,38666;2153,80900;0,02773
80,90000;5,39333;2155,24733;0,02777
81,00000;5,39994;2156,68865;0,02782
81,10000;5,40663;2158,53751;0,02787
81,20000;5,41333;2159,33640;0,02792
81,30000;5,41997;2160,94069;0,02797
81,40000;5,42666;2162,90224;0,02801
81,50000;5,43338;2163,01195;0,02806
81,60000;5,44005;2165,75675;0,02811
81,70000;5,44666;2166,33659;0,02816
81,80000;5,45336;2168,65521;0,02821
81,90000;5,46002;2169,33843;0,02826
82,00000;5,46666;2171,83568;0,02830
82,10000;5,47338;2173,50572;0,02835
82,20000;5,48002;2173,75644;0,02840
82,30000;5,48663;2175,31696;0,02845
82,40000;5,49330;2176,51073;0,02850
82,50000;5,49999;2178,00848;0,02855
82,60000;5,50666;2180,04212;0,02860
82,70000;5,51327;2180,97270;0,02865
82,80000;5,51999;2182,80889;0,02870
82,90000;5,52669;2183,59232;0,02875
83,00000;5,53330;2185,20910;0,02879
83,10000;5,54002;2186,86350;0,02884
83,20000;5,54669;2187,87882;0,02889
83,30000;5,55330;2188,60898;0,02894
83,40000;5,55999;2190,38557;0,02899
83,50000;5,56672;2191,81441;0,02904
83,60000;5,57336;2193,23393;0,02909
83,70000;5,57997;2195,06696;0,02914
83,80000;5,58669;2196,43936;0,02919
83,90000;5,59336;2197,66442;0,02924
84,00000;5,59994;2198,51360;0,02929
84,10000;5,60669;2200,24642;0,02934
84,20000;5,61336;2201,08628;0,02939
84,30000;5,61997;2203,04765;0,02944
84,40000;5,62663;2204,39192;0,02949
84,50000;5,63333;2205,42289;0,02954
84,60000;5,63999;2206,94263;0,02959
84,70000;5,64663;2207,55357;0,02964
84,80000;5,65330;2208,70357;0,02969
84,90000;5,66002;2210,75900;0,02974
85,00000;5,66666;2211,49549;0,02979
85,10000;5,67336;2212,87422;0,02984
85,20000;5,68005;2214,18384;0,02990
85,30000;5,68663;2215,71624;0,02995
85,40000;5,69333;2216,79416;0,03000
85,50000;5,69999;2217,64017;0,03005
85,60000;5,70669;2219,00623;0,03010
85,70000;5,71333;2221,06799;0,03015
85,80000;5,71999;2221,63517;0,03020
85,90000;5,72666;2222,88240;0,03026
86,00000;5,73330;2224,21084;0,03031
86,10000;5,74002;2225,21052;0,03036
86,20000;5,74669;2226,46687;0,03041
86,30000;5,75330;2227,65766;0,03046
86,40000;5,75997;2228,37515;0,03051
86,50000;5,76666;2230,07984;0,03056
86,60000;5,77333;2230,91636;0,03061
86,70000;5,77996;2232,28578;0,03067
86,80000;5,78666;2233,31042;0,03072
86,90000;5,79336;2235,36901;0,03077
87,00000;5,79999;2236,57545;0,03082
87,10000;5,80672;2237,42761;0,03088
87,20000;5,81336;2237,94468;0,03093
87,30000;5,81997;2239,47372;0,03098
87,40000;5,82666;2240,45776;0,03103
87,50000;5,83336;2241,62340;0,03109
87,60000;5,84002;2242,98015;0,03114
87,70000;5,84666;2243,78221;0,03119
87,80000;5,85336;2245,09202;0,03125
87,90000;5,85999;2246,30460;0,03130
88,00000;5,86660;2246,44560;0,03135
88,10000;5,87330;2248,86145;0,03140
88,20000;5,87999;2249,18108;0,03146
88,30000;5,88663;2250,46594;0,03151
88,40000;5,89336;2251,86031;0,03156
88,50000;5,90005;2252,80020;0,03162
88,60000;5,90672;2253,48640;0,03167
88,70000;5,91333;2254,47658;0,03172
88,80000;5,91999;2255,36656;0,03178
88,90000;5,92669;2256,70449;0,03183
89,00000;5,93330;2257,67903;0,03189
89,10000;5,94002;2259,36472;0,03194
89,20000;5,94669;2259,74713;0,03199
89,30000;5,95330;2261,25736;0,03205
89,40000;5,95996;2260,70583;0,03210
89,50000;5,96669;2263,35675;0,03216
89,60000;5,97335;2263,58548;0,03221
89,70000;5,97996;2265,10521;0,03227
89,80000;5,98669;2266,03895;0,03232
89,90000;5,99335;2266,55602;0,03237
90,00000;5,99999;2267,57117;0,03243
90,10000;6,00666;2268,94673;0,03248
90,20000;6,01333;2269,71768;0,03254
90,30000;6,01994;2270,28169;0,03259
90,40000;6,02663;2271,02432;0,03265
90,50000;6,03338;2272,27770;0,03270
90,60000;6,04008;2273,21461;0,03276
90,70000;6,04669;2274,22658;0,03281
90,80000;6,05335;2275,95940;0,03287
90,90000;6,06002;2276,08476;0,03292
91,00000;6,06663;2276,37608;0,03298
91,10000;6,07333;2277,83956;0,03303
91,20000;6,08002;2278,13404;0,03309
91,30000;6,08666;2279,52525;0,03314
91,40000;6,09335;2280,22393;0,03320
91,50000;6,10002;2281,86287;0,03325
91,60000;6,10669;2282,42688;0,03331
91,70000;6,11330;2282,13854;0,03336
91,80000;6,11996;2284,38526;0,03342
91,90000;6,12663;2284,40091;0,03348
92,00000;6,13327;2285,28753;0,03353
92,10000;6,14002;2286,52842;0,03359
92,20000;6,14666;2286,87003;0,03365
92,30000;6,15330;2287,87903;0,03370
92,40000;6,15999;2288,99438;0,03376
92,50000;6,16672;2290,27290;0,03382
92,60000;6,17335;2290,47649;0,03387
92,70000;6,18002;2291,08445;0,03393
92,80000;6,18672;2291,34448;0,03399
92,90000;6,19338;2292,27822;0,03404
93,00000;6,19999;2293,83241;0,03410
93,10000;6,20666;2293,93579;0,03416
93,20000;6,21333;2295,36165;0,03422
93,30000;6,21994;2295,95695;0,03427
93,40000;6,22663;2296,70890;0,03433
93,50000;6,23335;2297,45787;0,03438
93,60000;6,23999;2298,34467;0,03444
93,70000;6,24663;2298,75501;0,03450
93,80000;6,25333;2300,18385;0,03456
93,90000;6,25999;2300,62567;0,03461
94,00000;6,26660;2300,94213;0,03467
94,10000;6,27335;2302,04519;0,03473
94,20000;6,28002;2302,32403;0,03479
94,30000;6,28669;2303,20450;0,03485
94,40000;6,29335;2304,40777;0,03491
94,50000;6,30005;2304,13526;0,03496
94,60000;6,30669;2305,77700;0,03502
94,70000;6,31330;2306,29724;0,03508
94,80000;6,31999;2307,69794;0,03514
94,90000;6,32672;2307,67913;0,03520
95,00000;6,33330;2308,22116;0,03526
95,10000;6,34002;2309,30224;0,03532
95,20000;6,34669;2309,61554;0,03538
95,30000;6,35327;2310,26411;0,03544
95,40000;6,35991;2310,44274;0,03549
95,50000;6,36663;2311,40163;0,03555
95,60000;6,37333;2313,19070;0,03561
95,70000;6,37996;2312,84611;0,03567
95,80000;6,38669;2313,45389;0,03573
95,90000;6,39335;2314,01492;0,03579
96,00000;6,39999;2314,17473;0,03585
96,10000;6,40669;2314,82647;0,03591
96,20000;6,41335;2315,20552;0,03597
96,30000;6,41999;2315,40930;0,03603
96,40000;6,42669;2317,24232;0,03609
96,50000;6,43338;2317,18905;0,03615
96,60000;6,44005;2317,65900;0,03621
96,70000;6,44666;2317,59008;0,03627
96,80000;6,45333;2319,29161;0,03633
96,90000;6,46002;2319,32607;0,03639
97,00000;6,46666;2319,35736;0,03645
97,10000;6,47338;2320,22218;0,03651
97,20000;6,48002;2320,57944;0,03657
97,30000;6,48663;2321,25930;0,03663
97,40000;6,49330;2321,81717;0,03669
97,50000;6,49996;2322,18690;0,03675
97,60000;6,50663;2322,73526;0,03681
97,70000;6,51327;2323,06104;0,03687
97,80000;6,51996;2323,57178;0,03693
97,90000;6,52666;2324,73109;0,03700
98,00000;6,53330;2324,62771;0,03706
98,10000;6,54002;2325,19172;0,03712
98,20000;6,54672;2325,19489;0,03718
98,30000;6,55330;2325,62106;0,03724
98,40000;6,55999;2326,45776;0,03730
98,50000;6,56672;2327,35388;0,03737
98,60000;6,57338;2327,30061;0,03742
98,70000;6,57999;2327,29428;0,03748
98,80000;6,58669;2328,40050;0,03755
98,90000;6,59338;2328,78271;0,03761
99,00000;6,59996;2328,65103;0,03767
99,10000;6,60669;2330,04540;0,03773
99,20000;6,61335;2330,13015;0,03780
99,30000;6,61994;2330,59060;0,03786
99,40000;6,62663;2330,36503;0,03792
99,50000;6,63333;2331,09202;0,03798
99,60000;6,64002;2331,64355;0,03804
99,70000;6,64663;2331,76257;0,03810
99,80000;6,65333;2331,85031;0,03817
99,90000;6,66005;2332,40500;0,03823
100,00000;6,66669;2333,35122;0,03829
100,10000;6,67338;2333,19141;0,03836
100,20000;6,68005;2332,84365;0,03842
100,30000;6,68666;2333,51421;0,03848
100,40000;6,69333;2334,17843;0,03854
100,50000;6,70002;2334,46993;0,03860
100,60000;6,70669;2334,93671;0,03867
100,70000;6,71330;2333,90275;0,03873
100,80000;6,71996;2335,34407;0,03879
100,90000;6,72666;2336,26533;0,03886
101,00000;6,73330;2335,45378;0,03892
101,10000;6,73999;2336,71963;0,03899
101,20000;6,74669;2336,27465;0,03905
101,30000;6,75333;2336,55050;0,03911
101,40000;6,76002;2337,18343;0,03918
101,50000;6,76672;2337,85398;0,03924
101,60000;6,77335;2338,24886;0,03931
101,70000;6,77996;2338,03876;0,03937
101,80000;6,78666;2338,24253;0,03943
101,90000;6,79333;2338,30512;0,03950
102,00000;6,79996;2338,65604;0,03956
102,10000;6,80669;2339,65889;0,03963
102,20000;6,81333;2339,08221;0,03969
102,30000;6,81996;2338,91942;0,03976
102,40000;6,82666;2339,17627;0,03982
102,50000;6,83335;2339,48641;0,03988
102,60000;6,84002;2340,70849;0,03995
102,70000;6,84666;2340,35123;0,04002
102,80000;6,85335;2340,54551;0,04008
102,90000;6,86002;2339,97535;0,04015
103,00000;6,86666;2341,16912;0,04021
103,10000;6,87335;2341,47627;0,04028
103,20000;6,88002;2341,66421;0,04034
103,30000;6,88663;2341,42598;0,04041
103,40000;6,89333;2341,77709;0,04047
103,50000;6,90002;2342,73579;0,04054
103,60000;6,90669;2342,74212;0,04060
103,70000;6,91330;2342,06524;0,04066
103,80000;6,91996;2342,17178;0,04073
103,90000;6,92666;2342,14682;0,04080
104,00000;6,93330;2342,28466;0,04086
104,10000;6,94002;2342,93640;0,04093
104,20000;6,94672;2342,23139;0,04100
104,30000;6,95333;2342,53220;0,04106
104,40000;6,95999;2343,14948;0,04113
104,50000;6,96669;2343,12434;0,04119
104,60000;6,97335;2343,36257;0,04126
104,70000;6,97996;2343,57566;0,04133
104,80000;6,98669;2343,83885;0,04139
104,90000;6,99338;2343,63209;0,04146
105,00000;6,99996;2343,32811;0,04152
105,10000;7,00663;2344,01748;0,04159
105,20000;7,01333;2343,37188;0,04165
105,30001;7,01993;2344,18027;0,04172
105,40001;7,02660;2343,48793;0,04178
105,50001;7,03333;2344,04560;0,04185
105,60001;7,04002;2344,00798;0,04192
105,70001;7,04666;2344,34959;0,04198
105,80001;7,05333;2344,08323;0,04205
105,90001;7,05999;2344,27117;0,04212
106,00001;7,06657;2344,09887;0,04218
106,10001;7,07330;2344,45930;0,04225
106,20001;7,07999;2344,81022;0,04232
106,30001;7,08663;2344,80388;0,04239
106,40001;7,09335;2344,16146;0,04246
106,50001;7,10005;2344,91676;0,04252
106,60001;7,10672;2345,22056;0,04259
106,70001;7,11333;2344,77893;0,04266
106,80001;7,11999;2344,97320;0,04272
106,90001;7,12666;2344,51555;0,04279
107,00001;7,13333;2344,86349;0,04286
107,10001;7,14005;2345,61227;0,04293
107,20001;7,14672;2345,08272;0,04300
107,30001;7,15330;2344,97003;0,04307
107,40001;7,15996;2344,95122;0,04314
107,50001;7,16669;2345,20491;0,04321
107,60001;7,17335;2345,23322;0,04328
107,70001;7,18002;2345,25818;0,04334
107,80001;7,18669;2345,31146;0,04341
107,90001;7,19335;2344,99183;0,04348
108,00001;7,19993;2344,39038;0,04355
108,10001;7,20666;2345,44631;0,04361
108,20001;7,21332;2345,48077;0,04368
108,30001;7,21993;2344,68170;0,04375
108,40001;7,22666;2345,04510;0,04382
108,50001;7,23338;2344,44980;0,04389
108,60001;7,24008;2345,05776;0,04396
108,70001;7,24669;2344,32127;0,04402
108,80001;7,25335;2344,81022;0,04409
108,90001;7,26002;2344,96687;0,04416
109,00001;7,26663;2344,39038;0,04423
109,10001;7,27335;2345,45562;0,04430
109,20001;7,28002;2345,59979;0,04437
109,30001;7,28663;2344,67536;0,04444
109,40001;7,29330;2344,37771;0,04451
109,50001;7,29999;2344,89478;0,04458
109,60001;7,30666;2344,56882;0,04465
109,70001;7,31327;2343,42832;0,04472
109,80001;7,31996;2344,06125;0,04478
109,90001;7,32672;2344,28067;0,04485
110,00001;7,33335;2343,64141;0,04492
110,10001;7,34008;2343,42832;0,04499
110,20001;7,34672;2343,71033;0,04506
110,30001;7,35330;2344,05193;0,04513
110,40001;7,35999;2343,70101;0,04520
110,50001;7,36669;2344,37771;0,04527
110,60001;7,37335;2343,59745;0,04534
110,70001;7,37999;2343,46595;0,04541
110,80001;7,38669;2343,41901;0,04548
110,90001;7,39335;2343,18711;0,04555
111,00001;7,39996;2343,16196;0,04562
111,10001;7,40666;2343,30613;0,04569
111,20001;7,41333;2343,26534;0,04576
111,30001;7,41993;2342,36605;0,04583
111,40001;7,42666;2342,09355;0,04590
111,50001;7,43332;2343,17761;0,04597
111,60001;7,44002;2342,94273;0,04604
111,70001;7,44663;2342,02761;0,04611
111,80001;7,45333;2341,95255;0,04618
111,90001;7,46005;2342,06840;0,04626
112,00001;7,46669;2341,89294;0,04632
112,10001;7,47338;2342,15613;0,04640
112,20001;7,48005;2341,28498;0,04647
112,30001;7,48666;2340,72730;0,04653
112,40001;7,49333;2341,18160;0,04661
112,50001;7,50002;2341,91809;0,04668
112,60001;7,50666;2341,99017;0,04675
112,70001;7,51330;2340,31379;0,04682
112,80001;7,51999;2340,62076;0,04689
112,90001;7,52669;2340,38271;0,04696
113,00001;7,53332;2339,64324;0,04703
113,10001;7,53999;2340,23854;0,04710
113,20001;7,54669;2340,15081;0,04717
113,30001;7,55327;2339,56482;0,04724
113,40001;7,55996;2339,45511;0,04731
113,50001;7,56666;2339,70266;0,04739
113,60001;7,57335;2339,90010;0,04746
113,70001;7,57996;2339,47709;0,04753
113,80001;7,58669;2338,50572;0,04760
113,90001;7,59338;2338,30828;0,04767
114,00001;7,59996;2338,16411;0,04774
114,10001;7,60672;2338,33659;0,04782
114,20001;7,61338;2338,04826;0,04789
114,30001;7,61996;2338,24886;0,04796
114,40001;7,62666;2337,66288;0,04803
114,50001;7,63335;2337,55000;0,04810
114,60001;7,64002;2337,68467;0,04817
114,70001;7,64663;2336,58813;0,04824
114,80001;7,65332;2336,66636;0,04832
114,90001;7,65999;2336,83866;0,04839
115,00001;7,66663;2336,07739;0,04846
115,10001;7,67330;2335,98966;0,04853
115,20001;7,68002;2335,98966;0,04860
115,30001;7,68663;2335,98333;0,04868
115,40001;7,69332;2335,08088;0,04875
115,50001;7,70002;2335,12167;0,04882
115,60001;7,70669;2335,18742;0,04889
115,70001;7,71335;2335,17811;0,04896
115,77201;7,71814;1980,51818;0,04807
115,77601;7,71842;1720,06786;0,04723
115,78001;7,71868;1438,70814;0,04610
115,78201;7,71882;1299,10465;0,04545
