Text Inputs : Specimen label;"1"
Dimension : Length;50,00000;mm
Dimension : Final length;100,00000;mm
Test : Rate 1;2,00000;mm/min
General : Unique Identifier;"{D3021AB9-DE4B-4C42-AC83-917201171C7A}"

Time;Extension;Load;Strain 1
(sec);(mm);(N);(mm/mm)
0,00000;0,00000;31,42288;0,00029
0,10000;0,00191;30,68653;0,00029
0,20000;0,00487;32,50078;0,00029
0,30000;0,00835;32,39425;0,00029
0,40000;0,01199;32,19057;0,00029
0,50000;0,01561;31,90857;0,00029
0,60000;0,01923;32,36919;0,00029
0,70000;0,02282;34,98245;0,00031
0,80000;0,02632;39,28778;0,00034
0,90000;0,02977;43,00716;0,00037
1,00000;0,03319;46,99602;0,00039
1,10000;0,03650;50,91280;0,00042
1,20000;0,03989;52,81478;0,00044
1,30000;0,04328;57,51805;0,00047
1,40000;0,04664;60,19713;0,00049
1,50000;0,04997;62,75401;0,00051
1,60000;0,05330;65,90937;0,00053
1,70000;0,05661;68,38478;0,00056
1,80000;0,05989;71,52134;0,00058
1,90000;0,06325;74,05315;0,00060
2,00000;0,06664;77,07690;0,00062
2,10000;0,07000;80,13513;0,00064
2,20000;0,07333;82,68886;0,00067
2,30000;0,07667;85,97582;0,00069
2,40000;0,07991;87,78068;0,00071
2,50000;0,08322;88,95885;0,00072
2,60000;0,08664;91,25565;0,00074
2,70000;0,09000;92,46515;0,00076
2,80000;0,09333;94,21047;0,00078
2,90000;0,09678;97,39089;0,00080
3,00000;0,10017;99,51536;0,00082
3,10000;0,10342;101,32021;0,00083
3,20000;0,10672;101,11340;0,00084
3,30000;0,11009;102,72712;0,00085
3,40000;0,11339;102,59865;0,00086
3,50000;0,11670;102,70205;0,00087
3,60000;0,12000;103,07806;0,00087
3,70000;0,12328;102,98720;0,00088
3,80000;0,12655;102,76472;0,00088
3,90000;0,12994;102,83053;0,00089
4,00000;0,13333;102,70831;0,00089
4,10000;0,13670;104,17789;0,00090
4,20000;0,14006;103,19400;0,00090
4,30000;0,14339;103,89589;0,00090
4,40000;0,14667;103,02793;0,00091
4,50000;0,14997;104,46931;0,00091
4,60000;0,15333;103,97109;0,00091
4,70000;0,15669;103,85829;0,00092
4,80000;0,16003;103,55121;0,00092
4,90000;0,16339;103,33500;0,00092
5,00000;0,16667;103,80815;0,00093
5,10000;0,16994;104,87352;0,00093
5,20000;0,17325;103,78308;0,00093
5,30000;0,17664;104,80771;0,00094
5,40000;0,18000;104,44424;0,00094
5,50000;0,18336;104,39410;0,00094
5,60000;0,18667;105,54093;0,00095
5,70000;0,18997;104,66045;0,00095
5,80000;0,19322;104,77011;0,00095
5,90000;0,19658;105,32473;0,00095
6,00000;0,20003;105,27773;0,00096
6,10000;0,20345;105,55347;0,00096
6,20000;0,20678;105,13046;0,00097
6,30000;0,21011;106,13629;0,00097
6,40000;0,21336;106,44649;0,00097
6,50000;0,21661;105,95769;0,00097
6,60000;0,21997;106,37130;0,00097
6,70000;0,22333;105,99529;0,00098
6,80000;0,22667;106,18642;0,00098
6,90000;0,23000;106,22715;0,00098
7,00000;0,23336;106,26789;0,00098
7,10000;0,23664;107,40219;0,00098
7,20000;0,24000;106,81624;0,00098
7,30000;0,24339;107,21732;0,00099
7,40000;0,24675;106,43083;0,00099
7,50000;0,25009;106,81311;0,00099
7,60000;0,25342;106,66584;0,00099
7,70000;0,25672;106,83504;0,00099
7,80000;0,25997;106,42143;0,00099
7,90000;0,26330;106,74103;0,00099
8,00000;0,26667;106,28356;0,00099
8,10000;0,27000;107,39280;0,00099
8,20000;0,27333;106,72851;0,00100
8,30000;0,27664;106,33370;0,00100
8,40000;0,27991;107,48679;0,00100
8,50000;0,28322;106,84130;0,00100
8,60000;0,28661;106,61883;0,00100
8,70000;0,28994;106,98545;0,00100
8,80000;0,29330;106,70971;0,00100
8,90000;0,29672;107,07945;0,00100
9,00000;0,30009;106,34622;0,00101
9,10000;0,30339;106,61570;0,00101
9,20000;0,30669;106,72538;0,00101
9,30000;0,31006;107,74373;0,00101
9,40000;0,31339;106,32742;0,00101
9,50000;0,31669;106,80684;0,00101
9,60000;0,32003;107,16405;0,00101
9,70000;0,32333;107,03244;0,00101
9,80000;0,32658;107,32072;0,00101
9,90000;0,32994;106,89771;0,00101
10,00000;0,33333;108,13228;0,00102
10,10000;0,33667;108,62109;0,00102
10,20000;0,34003;107,13584;0,00102
10,30000;0,34336;108,72763;0,00102
10,40000;0,34667;107,84087;0,00102
10,50000;0,35000;107,72807;0,00102
10,60000;0,35339;108,05394;0,00102
10,70000;0,35672;107,64659;0,00102
10,80000;0,36006;108,02575;0,00103
10,90000;0,36336;107,93800;0,00103
11,00000;0,36667;108,55530;0,00103
11,10000;0,36994;109,40759;0,00103
11,20000;0,37328;109,16631;0,00103
11,30000;0,37667;110,46355;0,00103
11,40000;0,38003;108,87804;0,00103
11,50000;0,38339;108,80909;0,00103
11,60000;0,38669;108,79970;0,00104
11,70000;0,39000;109,88386;0,00104
11,80000;0,39336;109,44206;0,00104
11,90000;0,39675;109,49532;0,00104
12,00000;0,40011;111,42551;0,00104
12,10000;0,40345;109,84939;0,00105
12,20000;0,40675;111,01504;0,00105
12,30000;0,41003;111,07770;0,00105
12,40000;0,41330;110,69855;0,00105
12,50000;0,41661;111,24064;0,00105
12,60000;0,41997;111,45058;0,00105
12,70000;0,42330;112,56607;0,00106
12,80000;0,42667;113,62517;0,00106
12,90000;0,43000;113,17396;0,00107
13,00000;0,43333;114,53701;0,00107
13,10000;0,43661;115,53969;0,00108
13,20000;0,43997;116,34185;0,00108
13,30000;0,44336;116,48600;0,00109
13,40000;0,44675;117,88977;0,00110
13,50000;0,45008;119,12120;0,00110
13,60000;0,45339;119,83876;0,00111
13,70000;0,45667;120,96053;0,00112
13,80000;0,45994;122,68390;0,00113
13,90000;0,46330;125,20318;0,00114
14,00000;0,46667;127,14904;0,00116
14,10000;0,47000;129,56491;0,00117
14,20000;0,47333;130,32947;0,00118
14,30000;0,47667;131,51077;0,00119
14,40000;0,47994;133,57570;0,00121
14,50000;0,48325;134,90741;0,00122
14,60000;0,48661;135,82549;0,00123
14,70000;0,48994;138,66752;0,00124
14,80000;0,49328;139,41326;0,00125
14,90000;0,49675;141,77901;0,00127
15,00000;0,50017;143,42405;0,00128
15,10000;0,50339;145,56105;0,00130
15,20000;0,50672;147,28757;0,00131
15,30000;0,51006;149,88831;0,00133
15,40000;0,51339;151,67436;0,00135
15,50000;0,51669;154,03697;0,00136
15,60000;0,52000;156,98551;0,00138
15,70000;0,52330;157,74068;0,00139
15,80000;0,52655;160,01241;0,00141
15,90000;0,52997;162,11180;0,00143
16,00000;0,53339;164,28326;0,00144
16,10000;0,53675;165,87505;0,00146
16,20000;0,54008;167,72064;0,00147
16,30000;0,54342;169,93283;0,00149
16,40000;0,54669;171,30841;0,00150
16,50000;0,54997;173,90288;0,00152
16,60000;0,55333;175,93021;0,00153
16,70000;0,55669;176,61643;0,00155
16,80000;0,56003;178,90383;0,00156
16,90000;0,56333;180,81522;0,00158
17,00000;0,56667;182,93655;0,00159
17,10000;0,56994;185,06101;0,00161
17,20000;0,57328;186,70605;0,00163
17,30000;0,57664;188,85873;0,00164
17,40000;0,58000;190,59151;0,00166
17,50000;0,58336;192,19896;0,00168
17,60000;0,58667;195,29478;0,00169
17,70000;0,59000;196,62648;0,00171
17,80000;0,59328;198,92955;0,00173
17,90000;0,59667;201,20442;0,00174
18,00000;0,60003;203,47300;0,00176
18,10000;0,60339;204,62924;0,00178
18,20000;0,60672;206,17717;0,00180
18,30000;0,61006;208,79984;0,00181
18,40000;0,61333;211,50084;0,00183
18,50000;0,61664;213,30884;0,00185
18,60000;0,61997;215,22022;0,00187
18,70000;0,62333;216,88095;0,00188
18,80000;0,62664;218,75787;0,00190
18,90000;0,62997;221,01079;0,00192
19,00000;0,63330;223,91861;0,00194
19,10000;0,63661;225,41638;0,00196
19,20000;0,64000;227,46564;0,00198
19,30000;0,64339;229,36137;0,00199
19,40000;0,64675;231,05342;0,00201
19,50000;0,65006;233,71370;0,00203
19,60000;0,65339;235,21462;0,00205
19,70000;0,65669;237,75268;0,00206
19,80000;0,65997;239,05933;0,00208
19,90000;0,66330;241,63499;0,00210
20,00000;0,66669;243,79394;0,00212
20,10000;0,67006;245,89021;0,00213
20,20000;0,67339;247,32845;0,00215
20,30000;0,67672;249,05496;0,00217
20,40000;0,68003;251,28596;0,00219
20,50000;0,68330;253,96817;0,00221
20,60000;0,68664;255,21526;0,00222
20,70000;0,69000;257,05460;0,00224
20,80000;0,69333;258,99732;0,00226
20,90000;0,69667;261,30665;0,00228
21,00000;0,70003;263,40606;0,00230
21,10000;0,70330;265,36756;0,00232
21,20000;0,70667;267,75524;0,00234
21,30000;0,71003;269,78257;0,00236
21,40000;0,71339;272,12009;0,00238
21,50000;0,71669;273,95629;0,00240
21,60000;0,72003;276,29382;0,00241
21,70000;0,72333;278,14254;0,00243
21,80000;0,72658;280,13226;0,00245
21,90000;0,72994;282,80194;0,00247
22,00000;0,73336;284,36554;0,00249
22,10000;0,73672;286,79080;0,00251
22,20000;0,74008;288,63326;0,00253
22,30000;0,74339;290,37232;0,00255
22,40000;0,74667;292,84144;0,00257
22,50000;0,74997;294,29535;0,00259
22,60000;0,75336;297,05591;0,00261
22,70000;0,75672;298,65708;0,00263
22,80000;0,76003;300,38988;0,00265
22,90000;0,76333;302,90915;0,00267
23,00000;0,76664;305,81697;0,00269
23,10000;0,76991;307,34607;0,00271
23,20000;0,77328;309,41726;0,00273
23,30000;0,77667;311,52919;0,00275
23,40000;0,78003;313,07084;0,00277
23,50000;0,78336;315,47730;0,00279
23,60000;0,78669;318,06866;0,00281
23,70000;0,78997;319,72623;0,00283
23,80000;0,79325;322,40532;0,00285
23,90000;0,79667;324,38564;0,00287
24,00000;0,80006;326,40670;0,00289
24,10000;0,80342;328,53743;0,00291
24,20000;0,80675;330,13860;0,00293
24,30000;0,81008;332,90857;0,00295
24,40000;0,81336;334,67894;0,00297
24,50000;0,81664;336,60913;0,00299
24,60000;0,82000;338,88086;0,00301
24,70000;0,82336;341,17766;0,00303
24,80000;0,82669;342,80079;0,00305
24,90000;0,83006;344,57431;0,00307
25,00000;0,83339;348,21222;0,00309
25,10000;0,83664;349,35279;0,00311
25,20000;0,83997;351,79686;0,00313
25,30000;0,84333;352,99067;0,00315
25,40000;0,84669;354,94282;0,00317
25,50000;0,85003;356,70379;0,00319
25,60000;0,85336;359,34527;0,00321
25,70000;0,85667;361,31619;0,00323
25,80000;0,85994;363,42500;0,00325
25,90000;0,86330;364,49663;0,00327
26,00000;0,86667;368,11261;0,00329
26,10000;0,87003;370,26838;0,00331
26,20000;0,87339;371,34003;0,00333
26,30000;0,87672;372,68426;0,00335
26,40000;0,88000;374,77426;0,00337
26,50000;0,88328;376,77651;0,00339
26,60000;0,88664;378,77564;0,00341
26,70000;0,88997;380,73717;0,00343
26,80000;0,89333;383,05277;0,00345
26,90000;0,89667;384,66023;0,00347
27,00000;0,90006;387,11997;0,00349
27,10000;0,90333;388,32633;0,00351
27,20000;0,90667;391,36261;0,00353
27,30000;0,91003;393,13613;0,00355
27,40000;0,91336;394,53362;0,00357
27,50000;0,91669;397,02156;0,00359
27,60000;0,92003;399,19615;0,00361
27,70000;0,92333;401,28930;0,00363
27,80000;0,92658;402,84661;0,00364
27,90000;0,92994;404,92718;0,00367
28,00000;0,93333;407,97289;0,00369
28,10000;0,93669;408,31128;0,00371
28,20000;0,94006;410,37309;0,00373
28,30000;0,94342;412,79211;0,00375
28,40000;0,94669;415,34584;0,00376
28,50000;0,95000;416,78408;0,00378
28,60000;0,95339;419,04328;0,00380
28,70000;0,95675;420,50346;0,00382
28,80000;0,96008;422,49318;0,00384
28,90000;0,96342;424,16956;0,00386
29,00000;0,96672;426,95203;0,00388
29,10000;0,97000;428,19604;0,00390
29,20000;0,97330;430,31108;0,00392
29,30000;0,97667;431,87467;0,00394
29,40000;0,98000;433,83930;0,00396
29,50000;0,98330;434,74487;0,00398
29,60000;0,98664;437,17953;0,00400
29,70000;0,98994;439,35729;0,00402
29,80000;0,99322;441,29998;0,00404
29,90000;0,99661;443,06098;0,00406
30,00000;1,00003;444,80315;0,00408
30,10000;1,00339;446,97463;0,00410
30,20000;1,00675;448,37217;0,00412
30,30000;1,01006;450,92274;0,00414
30,40000;1,01333;452,06961;0,00416
30,50000;1,01661;454,04052;0,00417
30,60000;1,02000;456,80734;0,00419
30,70000;1,02336;458,37406;0,00421
30,80000;1,02669;460,06609;0,00423
30,90000;1,03003;461,93674;0,00425
31,00000;1,03336;463,43454;0,00427
31,10000;1,03664;465,71251;0,00429
31,20000;1,04000;467,92785;0,00431
31,30000;1,04336;469,19691;0,00433
31,40000;1,04672;470,74165;0,00435
31,50000;1,05006;472,86926;0,00437
31,60000;1,05336;474,83081;0,00439
31,70000;1,05667;476,95525;0,00441
31,80000;1,05997;478,71312;0,00443
31,90000;1,06328;479,91006;0,00445
32,00000;1,06667;483,13439;0,00447
32,10000;1,07003;483,80494;0,00449
32,20000;1,07339;485,55653;0,00450
32,30000;1,07669;486,98224;0,00453
32,40000;1,07997;489,48582;0,00454
32,50000;1,08328;491,08076;0,00456
32,60000;1,08664;492,80412;0,00458
32,70000;1,09000;495,57406;0,00460
32,80000;1,09333;496,18511;0,00462
32,90000;1,09669;497,88654;0,00464
33,00000;1,10006;499,78853;0,00466
33,10000;1,10339;501,89733;0,00468
33,20000;1,10672;503,53925;0,00470
33,30000;1,11008;505,65116;0,00472
33,40000;1,11342;506,95469;0,00473
33,50000;1,11672;509,03214;0,00475
33,60000;1,12003;510,60198;0,00477
33,70000;1,12330;513,13690;0,00479
33,80000;1,12655;514,36522;0,00481
33,90000;1,12994;516,46777;0,00483
34,00000;1,13333;518,49508;0,00485
34,10000;1,13669;519,87064;0,00487
34,20000;1,14006;521,20234;0,00489
34,30000;1,14339;522,07974;0,00491
34,40000;1,14669;525,36670;0,00493
34,50000;1,15000;526,38818;0,00494
34,60000;1,15339;527,79820;0,00496
34,70000;1,15672;529,83183;0,00498
34,80000;1,16006;530,66532;0,00500
34,90000;1,16339;532,26021;0,00502
35,00000;1,16669;533,98986;0,00503
35,10000;1,16994;536,32115;0,00505
35,20000;1,17325;537,23296;0,00507
35,30000;1,17664;538,84042;0,00509
35,40000;1,18000;540,39774;0,00510
35,50000;1,18333;542,26210;0,00512
35,60000;1,18667;543,62514;0,00514
35,70000;1,18997;545,51773;0,00516
35,80000;1,19322;546,58311;0,00517
35,90000;1,19658;548,05893;0,00519
36,00000;1,19997;550,25546;0,00521
36,10000;1,20336;551,95382;0,00523
36,20000;1,20675;552,98158;0,00525
36,30000;1,21011;554,37908;0,00526
36,40000;1,21339;555,96144;0,00528
36,50000;1,21667;558,00132;0,00530
36,60000;1,22000;559,48342;0,00532
36,70000;1,22333;561,12222;0,00534
36,80000;1,22667;561,97448;0,00535
36,90000;1,23000;563,72294;0,00537
37,00000;1,23336;565,38368;0,00539
37,10000;1,23664;567,70551;0,00541
37,20000;1,24000;569,12499;0,00543
37,30000;1,24339;570,34385;0,00544
37,40000;1,24678;572,01399;0,00546
37,50000;1,25014;573,71543;0,00548
37,60000;1,25345;575,50776;0,00550
37,70000;1,25672;576,99298;0,00551
37,80000;1,25997;578,71323;0,00553
37,90000;1,26330;579,24907;0,00555
38,00000;1,26667;581,12601;0,00556
38,10000;1,27000;583,28807;0,00558
38,20000;1,27333;584,30014;0,00560
38,30000;1,27664;585,62243;0,00562
38,40000;1,27991;587,38342;0,00563
38,50000;1,28322;588,98148;0,00565
38,60000;1,28661;590,35392;0,00567
38,70000;1,28994;591,52581;0,00569
38,80000;1,29330;593,33066;0,00570
38,90000;1,29667;594,88174;0,00572
39,00000;1,30006;596,20403;0,00574
39,10000;1,30336;598,13107;0,00575
39,20000;1,30669;599,79493;0,00577
39,30000;1,31008;601,49953;0,00579
39,40000;1,31342;602,35183;0,00581
39,50000;1,31672;604,42616;0,00582
39,60000;1,32003;606,53179;0,00584
39,70000;1,32333;608,49017;0,00586
39,80000;1,32661;608,63746;0,00587
39,90000;1,32994;610,46425;0,00589
40,00000;1,33333;612,60439;0,00591
40,10000;1,33669;614,57218;0,00593
40,20000;1,34003;614,84789;0,00595
40,30000;1,34336;616,80945;0,00596
40,40000;1,34669;618,36364;0,00598
40,50000;1,35000;619,72351;0,00600
40,60000;1,35339;620,80771;0,00602
40,70000;1,35675;623,30188;0,00603
40,80000;1,36006;623,75311;0,00605
40,90000;1,36336;625,78046;0,00607
41,00000;1,36667;627,61661;0,00609
41,10000;1,36994;628,61932;0,00610
41,20000;1,37330;631,00071;0,00612
41,30000;1,37667;631,59293;0,00614
41,40000;1,38000;632,60505;0,00615
41,50000;1,38336;634,29708;0,00617
41,60000;1,38669;636,45290;0,00619
41,70000;1,38997;638,06348;0,00620
41,80000;1,39327;639,29805;0,00622
41,90000;1,39669;640,03440;0,00624
42,00000;1,40008;641,78598;0,00626
42,10000;1,40345;643,46548;0,00627
42,20000;1,40675;644,93194;0,00629
42,30000;1,41006;645,89079;0,00631
42,40000;1,41330;648,04028;0,00633
42,50000;1,41658;649,14324;0,00634
42,60000;1,41997;650,75699;0,00636
42,70000;1,42333;653,14462;0,00638
42,80000;1,42666;653,65541;0,00640
42,90000;1,43000;655,30045;0,00641
43,00000;1,43336;656,21538;0,00643
43,10000;1,43664;658,54667;0,00645
43,20000;1,44000;659,45536;0,00646
43,30000;1,44336;661,54851;0,00648
43,40000;1,44675;662,92719;0,00650
43,50000;1,45008;664,08971;0,00652
43,60000;1,45342;665,89457;0,00653
43,70000;1,45669;668,15377;0,00655
43,80000;1,45997;668,63005;0,00657
43,90000;1,46330;670,49130;0,00659
44,00000;1,46667;671,31538;0,00660
44,10000;1,47000;672,90715;0,00662
44,20000;1,47333;674,06967;0,00664
44,30000;1,47667;675,53925;0,00665
44,40000;1,47991;677,09968;0,00667
44,50000;1,48322;678,53481;0,00669
44,60000;1,48658;679,90725;0,00670
44,70000;1,48994;682,41712;0,00672
44,80000;1,49327;683,16599;0,00674
44,90000;1,49666;684,94580;0,00676
45,00000;1,50008;685,23404;0,00677
45,10000;1,50336;687,67811;0,00679
45,20000;1,50672;689,26676;0,00681
45,30000;1,51008;690,31646;0,00682
45,40000;1,51342;691,79544;0,00684
45,50000;1,51672;693,01436;0,00686
45,60000;1,52003;694,80352;0,00688
45,70000;1,52333;696,16656;0,00689
45,80000;1,52661;697,54841;0,00691
45,90000;1,53000;698,58558;0,00693
46,00000;1,53339;700,22121;0,00694
46,10000;1,53678;701,73782;0,00696
46,20000;1,54011;703,98450;0,00698
46,30000;1,54342;704,77724;0,00700
46,40000;1,54669;706,40035;0,00701
46,50000;1,54997;707,38425;0,00703
46,60000;1,55333;709,47111;0,00705
46,70000;1,55666;710,80909;0,00707
46,80000;1,56000;711,10991;0,00708
46,90000;1,56333;713,24063;0,00710
47,00000;1,56664;714,53159;0,00712
47,10000;1,56991;716,24555;0,00713
47,20000;1,57325;717,77469;0,00715
47,30000;1,57664;719,21293;0,00717
47,40000;1,57997;720,32530;0,00718
47,50000;1,58333;721,50659;0,00720
47,60000;1,58669;723,74698;0,00722
47,70000;1,59000;724,52095;0,00723
47,80000;1,59327;725,45786;0,00725
47,90000;1,59666;726,74253;0,00727
48,00000;1,60003;728,19018;0,00728
48,10000;1,60339;730,24258;0,00730
48,20000;1,60675;731,04473;0,00732
48,30000;1,61006;732,32944;0,00733
48,40000;1,61333;733,88051;0,00735
48,50000;1,61661;735,05552;0,00736
48,60000;1,61997;736,66922;0,00738
48,70000;1,62333;737,34294;0,00740
48,80000;1,62664;739,73062;0,00741
48,90000;1,62997;740,08154;0,00743
49,00000;1,63330;741,85506;0,00745
49,10000;1,63661;743,13036;0,00746
49,20000;1,64000;744,58742;0,00748
49,30000;1,64339;745,39585;0,00749
49,40000;1,64675;746,83093;0,00751
49,50000;1,65008;748,39764;0,00753
49,60000;1,65342;749,91109;0,00754
49,70000;1,65669;750,43123;0,00756
49,80000;1,65997;751,60628;0,00757
49,90000;1,66330;752,80638;0,00759
50,00000;1,66666;754,45771;0,00760
50,10000;1,67000;755,82387;0,00762
50,20000;1,67336;756,92683;0,00763
50,30000;1,67672;757,53471;0,00765
50,40000;1,68000;759,65603;0,00767
50,50000;1,68327;761,39509;0,00768
50,60000;1,68664;762,31319;0,00770
50,70000;1,69000;762,73619;0,00771
50,80000;1,69336;764,50659;0,00773
50,90000;1,69669;765,32443;0,00774
51,00000;1,70005;765,81948;0,00776
51,10000;1,70330;768,33251;0,00777
51,20000;1,70666;768,90904;0,00779
51,30000;1,71003;770,33164;0,00780
51,40000;1,71339;771,83256;0,00782
51,50000;1,71672;772,32136;0,00784
51,60000;1,72003;774,08236;0,00785
51,70000;1,72333;775,35450;0,00787
51,80000;1,72661;777,05909;0,00788
51,90000;1,73000;777,67638;0,00790
52,00000;1,73339;779,33394;0,00792
52,10000;1,73675;781,21088;0,00793
52,20000;1,74008;782,57388;0,00795
52,30000;1,74339;782,83707;0,00796
52,40000;1,74666;785,19033;0,00798
52,50000;1,75000;785,85772;0,00799
52,60000;1,75336;787,02653;0,00801
52,70000;1,75669;787,91948;0,00803
52,80000;1,76003;788,97234;0,00804
52,90000;1,76333;791,10311;0,00806
53,00000;1,76664;792,24994;0,00807
53,10000;1,76991;793,72888;0,00809
53,20000;1,77325;795,22664;0,00811
53,30000;1,77664;796,10087;0,00812
53,40000;1,78000;797,57990;0,00814
53,50000;1,78336;798,65465;0,00815
53,60000;1,78666;799,94248;0,00817
53,70000;1,78997;801,38696;0,00819
53,80000;1,79322;802,51498;0,00820
53,90000;1,79664;803,26078;0,00822
54,00000;1,80005;804,85260;0,00823
54,10000;1,80342;807,51283;0,00825
54,20000;1,80675;807,30291;0,00827
54,30000;1,81008;808,45915;0,00828
54,40000;1,81336;810,07602;0,00830
54,50000;1,81666;811,46723;0,00832
54,60000;1,82000;812,77387;0,00833
54,70000;1,82339;814,08052;0,00835
54,80000;1,82672;815,48113;0,00836
54,90000;1,83005;816,03890;0,00838
55,00000;1,83339;817,85312;0,00840
55,10000;1,83664;818,99688;0,00841
55,20000;1,83997;821,09626;0,00843
55,30000;1,84333;821,17459;0,00844
55,40000;1,84672;822,87285;0,00846
55,50000;1,85005;824,04790;0,00848
55,60000;1,85336;825,64279;0,00849
55,70000;1,85666;826,16610;0,00851
55,80000;1,85994;828,00854;0,00852
55,90000;1,86327;829,17418;0,00854
56,00000;1,86666;831,10752;0,00856
56,10000;1,87000;832,92807;0,00857
56,20000;1,87336;833,83983;0,00859
56,30000;1,87669;834,90526;0,00861
56,40000;1,88000;836,38113;0,00862
56,50000;1,88327;836,68819;0,00864
56,60000;1,88664;838,24862;0,00865
56,70000;1,89000;839,40485;0,00867
56,80000;1,89333;840,75844;0,00869
56,90000;1,89666;842,30015;0,00870
57,00000;1,90003;842,49442;0,00872
57,10000;1,90330;844,83819;0,00873
57,20000;1,90666;847,08482;0,00875
57,30000;1,91005;847,08175;0,00877
57,40000;1,91339;848,82081;0,00878
57,50000;1,91672;849,09024;0,00880
57,60000;1,92003;851,18655;0,00882
57,70000;1,92333;852,33962;0,00883
57,80000;1,92661;853,46140;0,00885
57,90000;1,92997;854,72725;0,00886
58,00000;1,93336;856,39115;0,00888
58,10000;1,93672;858,02991;0,00890
58,20000;1,94008;859,09842;0,00891
58,30000;1,94342;859,42745;0,00893
58,40000;1,94669;860,95966;0,00895
58,50000;1,95000;862,48564;0,00896
58,60000;1,95339;864,07745;0,00898
58,70000;1,95675;864,91723;0,00899
58,80000;1,96008;866,15179;0,00901
58,90000;1,96342;867,44586;0,00903
59,00000;1,96672;868,37653;0,00904
59,10000;1,96997;870,55108;0,00906
59,20000;1,97330;871,62582;0,00908
59,30000;1,97664;872,65363;0,00909
59,40000;1,98000;874,26733;0,00911
59,50000;1,98330;874,96918;0,00912
59,60000;1,98664;876,07848;0,00914
59,70000;1,98994;877,39453;0,00915
59,80000;1,99322;878,38462;0,00917
59,90000;1,99661;879,65680;0,00919
60,00000;2,00003;880,68768;0,00920
60,10000;2,00339;882,83410;0,00922
60,20000;2,00675;883,79299;0,00924
60,30000;2,01008;884,64525;0,00925
60,40000;2,01336;886,88564;0,00927
60,50000;2,01664;887,67530;0,00928
60,60000;2,02000;888,92234;0,00930
60,70000;2,02336;890,07858;0,00932
60,80000;2,02669;890,97787;0,00933
60,90000;2,03000;892,74198;0,00935
61,00000;2,03333;893,79484;0,00936
61,10000;2,03661;894,78502;0,00938
61,20000;2,03997;896,90946;0,00940
61,30000;2,04336;897,61447;0,00941
61,40000;2,04672;898,64852;0,00943
61,50000;2,05005;899,88308;0,00945
61,60000;2,05336;901,52184;0,00946
61,70000;2,05666;902,50578;0,00948
61,80000;2,05994;903,35803;0,00950
61,90000;2,06330;905,17858;0,00951
62,00000;2,06666;906,53850;0,00953
62,10000;2,07003;908,29944;0,00954
62,20000;2,07336;908,59402;0,00956
62,30000;2,07669;909,79729;0,00958
62,40000;2,07997;911,95619;0,00959
62,50000;2,08325;911,71488;0,00961
62,60000;2,08664;913,70149;0,00962
62,70000;2,09000;914,84208;0,00964
62,80000;2,09333;915,76017;0,00966
62,90000;2,09669;917,86273;0,00967
63,00000;2,10008;918,73379;0,00969
63,10000;2,10339;920,91151;0,00971
63,20000;2,10678;921,50373;0,00973
63,30000;2,11011;922,40302;0,00974
63,40000;2,11344;924,13891;0,00975
63,50000;2,11672;924,55251;0,00977
63,60000;2,12003;926,60179;0,00979
63,70000;2,12330;928,02439;0,00980
63,80000;2,12658;928,50067;0,00982
63,90000;2,12994;929,50966;0,00983
64,00000;2,13333;931,77827;0,00985
64,10000;2,13666;933,15067;0,00987
64,20000;2,14003;933,10997;0,00989
64,30000;2,14336;935,36600;0,00990
64,40000;2,14666;937,20537;0,00992
64,50000;2,14997;937,15210;0,00994
64,60000;2,15333;938,80026;0,00995
64,70000;2,15672;939,78103;0,00997
64,80000;2,16005;941,62654;0,00998
64,90000;2,16339;942,57602;0,01000
65,00000;2,16669;944,12705;0,01002
65,10000;2,16994;945,31775;0,01003
65,20000;2,17327;945,72194;0,01005
65,30000;2,17666;947,38584;0,01006
65,40000;2,18000;948,39167;0,01008
65,50000;2,18336;950,10875;0,01010
65,60000;2,18666;951,54075;0,01011
65,70000;2,18997;952,14546;0,01013
65,80000;2,19322;953,41764;0,01015
65,90000;2,19658;954,96867;0,01016
66,00000;2,20000;956,72971;0,01018
66,10000;2,20339;958,06457;0,01020
66,20000;2,20678;958,81652;0,01022
66,30000;2,21011;959,35548;0,01023
66,40000;2,21339;961,51447;0,01025
66,50000;2,21666;962,09729;0,01026
66,60000;2,22000;963,99924;0,01028
66,70000;2,22333;964,14648;0,01030
66,80000;2,22666;966,29607;0,01031
66,90000;2,23000;967,67480;0,01033
67,00000;2,23336;968,02255;0,01035
67,10000;2,23664;970,51989;0,01036
67,20000;2,23997;970,91161;0,01038
67,30000;2,24339;971,81713;0,01040
67,40000;2,24675;973,64392;0,01041
67,50000;2,25011;975,02265;0,01043
67,60000;2,25344;976,42327;0,01045
67,70000;2,25672;977,76754;0,01047
67,80000;2,25997;979,51284;0,01048
67,90000;2,26330;979,60057;0,01050
68,00000;2,26664;981,14219;0,01051
68,10000;2,27000;982,77787;0,01053
68,20000;2,27330;983,21028;0,01055
68,30000;2,27664;984,34146;0,01056
68,40000;2,27991;985,53216;0,01058
68,50000;2,28325;987,28687;0,01060
68,60000;2,28664;987,79444;0,01062
68,70000;2,28997;988,92255;0,01063
68,80000;2,29333;990,47665;0,01065
68,90000;2,29669;991,72695;0,01067
69,00000;2,30008;993,49106;0,01068
69,10000;2,30339;995,19249;0,01070
69,20000;2,30672;995,27398;0,01072
69,30000;2,31008;997,40466;0,01073
69,40000;2,31342;997,74310;0,01075
69,50000;2,31672;998,90251;0,01077
69,60000;2,32003;1000,93298;0,01078
69,70000;2,32333;1002,05159;0,01080
69,80000;2,32661;1003,18901;0,01081
69,90000;2,32994;1004,67112;0,01083
70,00000;2,33333;1006,31611;0,01085
70,10000;2,33666;1006,85824;0,01087
70,20000;2,34000;1008,18370;0,01088
70,30000;2,34336;1009,99484;0,01090
70,40000;2,34666;1011,70251;0,01092
70,50000;2,34997;1012,31355;0,01093
70,60000;2,35336;1013,47603;0,01095
70,70000;2,35672;1014,84535;0,01097
70,80000;2,36005;1015,92951;0,01098
70,90000;2,36336;1016,88523;0,01100
71,00000;2,36666;1018,06028;0,01101
71,10000;2,36994;1019,87766;0,01103
71,20000;2,37327;1020,54505;0,01105
71,30000;2,37666;1022,23083;0,01106
71,40000;2,38003;1023,30558;0,01108
71,50000;2,38336;1024,05762;0,01110
71,60000;2,38666;1026,10691;0,01112
71,70000;2,39000;1027,40414;0,01113
71,80000;2,39333;1027,90231;0,01115
71,90000;2,39672;1029,98605;0,01117
72,00000;2,40011;1030,63779;0,01118
72,10000;2,40344;1032,26723;0,01120
72,20000;2,40675;1032,64004;0,01122
72,30000;2,41005;1034,06580;0,01123
72,40000;2,41330;1036,02726;0,01125
72,50000;2,41658;1035,81110;0,01126
72,60000;2,41997;1037,59402;0,01128
72,70000;2,42330;1038,86621;0,01130
72,80000;2,42666;1039,68401;0,01132
72,90000;2,43000;1041,06581;0,01133
73,00000;2,43336;1042,18451;0,01135
73,10000;2,43664;1043,96110;0,01137
73,20000;2,44000;1045,07981;0,01139
73,30000;2,44336;1046,09495;0,01140
73,40000;2,44675;1046,69975;0,01142
73,50000;2,45008;1048,09729;0,01144
73,60000;2,45342;1049,76427;0,01145
73,70000;2,45669;1051,22756;0,01147
73,80000;2,45994;1052,07358;0,01148
73,90000;2,46327;1053,54311;0,01150
74,00000;2,46664;1054,69311;0,01152
74,10000;2,47000;1056,35384;0,01154
74,20000;2,47333;1056,59515;0,01155
74,30000;2,47666;1058,35926;0,01157
74,40000;2,47994;1059,47163;0,01159
74,50000;2,48324;1060,55886;0,01160
74,60000;2,48661;1061,69004;0,01162
74,70000;2,48997;1062,52665;0,01164
74,80000;2,49327;1064,40363;0,01166
74,90000;2,49666;1065,40313;0,01167
75,00000;2,50008;1066,57818;0,01169
75,10000;2,50336;1067,96948;0,01171
75,20000;2,50672;1069,49853;0,01173
75,30000;2,51008;1069,90589;0,01174
75,40000;2,51342;1071,60108;0,01176
75,50000;2,51672;1073,03308;0,01177
75,60000;2,52003;1074,48380;0,01179
75,70000;2,52333;1074,79719;0,01181
75,80000;2,52661;1076,46417;0,01182
75,90000;2,53000;1077,46683;0,01184
76,00000;2,53339;1079,09627;0,01186
76,10000;2,53678;1080,52818;0,01188
76,20000;2,54011;1080,95752;0,01189
76,30000;2,54342;1081,91632;0,01191
76,40000;2,54669;1083,46110;0,01193
76,50000;2,55000;1084,97767;0,01194
76,60000;2,55333;1086,25609;0,01196
76,70000;2,55669;1086,96111;0,01198
76,80000;2,56000;1088,48400;0,01199
76,90000;2,56333;1090,01938;0,01201
77,00000;2,56664;1091,04402;0,01203
77,10000;2,56991;1092,70159;0,01205
77,20000;2,57327;1093,73871;0,01206
77,30000;2,57664;1094,63176;0,01208
77,40000;2,58000;1095,37439;0,01210
77,50000;2,58336;1097,18237;0,01211
77,60000;2,58669;1098,15057;0,01213
77,70000;2,59000;1099,35692;0,01215
77,80000;2,59330;1100,67297;0,01217
77,90000;2,59666;1101,85426;0,01218
78,00000;2,60003;1102,82879;0,01220
78,10000;2,60339;1105,28544;0,01222
78,20000;2,60675;1105,03789;0,01223
78,30000;2,61005;1106,32572;0,01225
78,40000;2,61333;1107,72951;0,01227
78,50000;2,61661;1109,33064;0,01229
78,60000;2,61997;1109,88524;0,01230
78,70000;2,62333;1111,34863;0,01232
78,80000;2,62664;1112,38575;0,01234
78,90000;2,62997;1113,72685;0,01235
79,00000;2,63330;1114,22818;0,01237
79,10000;2,63661;1116,69730;0,01239
79,20000;2,64000;1117,52143;0,01240
79,30000;2,64339;1118,96284;0,01242
79,40000;2,64675;1119,68033;0,01244
79,50000;2,65008;1120,27889;0,01246
79,60000;2,65339;1122,11499;0,01248
79,70000;2,65669;1123,29638;0,01249
79,80000;2,65997;1124,58104;0,01251
79,90000;2,66330;1125,13248;0,01252
80,00000;2,66669;1127,20057;0,01254
80,10000;2,67003;1128,55108;0,01256
80,20000;2,67339;1129,26234;0,01258
80,30000;2,67672;1130,38411;0,01260
80,40000;2,68003;1130,92624;0,01261
80,50000;2,68330;1132,47409;0,01263
80,60000;2,68666;1134,04086;0,01265
80,70000;2,69003;1135,18769;0,01266
80,80000;2,69336;1136,67604;0,01268
80,90000;2,69669;1137,92634;0,01270
81,00000;2,70005;1137,90436;0,01272
81,10000;2,70333;1140,23248;0,01273
81,20000;2,70666;1140,90936;0,01275
81,30000;2,71003;1143,08707;0,01277
81,40000;2,71339;1143,10272;0,01279
81,50000;2,71669;1144,97961;0,01280
81,60000;2,72003;1146,33013;0,01282
81,70000;2,72330;1146,47113;0,01284
81,80000;2,72658;1148,13810;0,01285
81,90000;2,72997;1149,27245;0,01287
82,00000;2,73339;1150,90804;0,01289
82,10000;2,73675;1151,67890;0,01291
82,20000;2,74008;1152,80384;0,01292
82,30000;2,74339;1154,01642;0,01294
82,40000;2,74666;1155,16018;0,01296
82,50000;2,74997;1156,59209;0,01298
82,60000;2,75333;1157,03708;0,01300
82,70000;2,75669;1158,71029;0,01301
82,80000;2,76003;1160,15170;0,01303
82,90000;2,76333;1161,43012;0,01305
83,00000;2,76664;1162,43279;0,01307
83,10000;2,76991;1163,62348;0,01308
83,20000;2,77327;1164,82992;0,01310
83,30000;2,77666;1165,69158;0,01312
83,40000;2,78000;1166,72246;0,01314
83,50000;2,78336;1167,73769;0,01315
83,60000;2,78666;1169,62092;0,01317
83,70000;2,78997;1170,62982;0,01319
83,80000;2,79327;1171,62000;0,01321
83,90000;2,79666;1172,60078;0,01322
84,00000;2,80005;1174,15814;0,01324
84,10000;2,80344;1175,15456;0,01326
84,20000;2,80675;1176,46744;0,01328
84,30000;2,81008;1177,89628;0,01330
84,40000;2,81336;1178,67654;0,01331
84,50000;2,81664;1179,85466;0,01333
84,60000;2,82000;1181,47461;0,01335
84,70000;2,82339;1182,44290;0,01337
84,80000;2,82669;1183,85917;0,01338
84,90000;2,83005;1184,89005;0,01340
85,00000;2,83336;1185,43534;0,01342
85,10000;2,83663;1186,90170;0,01344
85,20000;2,83997;1188,36509;0,01345
85,30000;2,84333;1189,18912;0,01347
85,40000;2,84669;1190,76837;0,01349
85,50000;2,85005;1191,46397;0,01351
85,60000;2,85339;1193,25323;0,01352
85,70000;2,85666;1194,34679;0,01354
85,80000;2,85994;1195,26796;0,01356
85,90000;2,86330;1196,23309;0,01357
86,00000;2,86666;1198,56745;0,01359
86,10000;2,87003;1198,99679;0,01361
86,20000;2,87336;1199,97123;0,01363
86,30000;2,87669;1201,08994;0,01365
86,40000;2,88000;1202,63780;0,01366
86,50000;2,88327;1203,15170;0,01368
86,60000;2,88664;1204,18258;0,01370
86,70000;2,89000;1205,65211;0,01372
86,80000;2,89333;1206,91489;0,01374
86,90000;2,89669;1208,03984;0,01375
87,00000;2,90005;1209,57522;0,01377
87,10000;2,90333;1210,96019;0,01379
87,20000;2,90666;1211,89076;0,01381
87,30000;2,91003;1212,91541;0,01383
87,40000;2,91339;1213,95886;0,01385
87,50000;2,91672;1215,87338;0,01386
87,60000;2,92003;1216,83534;0,01388
87,70000;2,92333;1217,87880;0,01390
87,80000;2,92661;1218,40518;0,01391
87,90000;2,92997;1220,30722;0,01393
88,00000;2,93336;1221,56059;0,01395
88,10000;2,93672;1222,46612;0,01397
88,20000;2,94008;1223,45937;0,01399
88,30000;2,94342;1224,47154;0,01401
88,40000;2,94669;1225,82829;0,01402
88,50000;2,95000;1226,56776;0,01404
88,60000;2,95339;1228,62644;0,01406
88,70000;2,95675;1229,15283;0,01408
88,80000;2,96008;1231,37441;0,01410
88,90000;2,96342;1231,73166;0,01411
89,00000;2,96672;1232,83146;0,01413
89,10000;2,96997;1233,92502;0,01415
89,20000;2,97333;1234,72093;0,01417
89,30000;2,97666;1236,55712;0,01418
89,40000;2,98000;1237,30293;0,01420
89,50000;2,98330;1238,08626;0,01422
89,60000;2,98663;1239,92246;0,01424
89,70000;2,98994;1241,05671;0,01426
89,80000;2,99322;1242,52001;0,01427
89,90000;2,99661;1243,52584;0,01429
90,00000;3,00002;1244,94219;0,01431
90,10000;3,00339;1246,51520;0,01433
90,20000;3,00675;1247,07287;0,01435
90,30000;3,01005;1247,90641;0,01436
90,40000;3,01333;1249,36970;0,01438
90,50000;3,01663;1250,09669;0,01440
90,60000;3,02000;1251,71039;0,01442
90,70000;3,02336;1252,82584;0,01444
90,80000;3,02669;1254,77491;0,01446
90,90000;3,03000;1254,59312;0,01448
91,00000;3,03336;1256,04700;0,01449
91,10000;3,03663;1257,64199;0,01451
91,20000;3,04000;1258,81387;0,01453
91,30000;3,04336;1259,81653;0,01455
91,40000;3,04672;1261,48984;0,01457
91,50000;3,05005;1262,25753;0,01458
91,60000;3,05339;1263,66438;0,01460
91,70000;3,05669;1264,72041;0,01462
91,80000;3,05997;1265,74188;0,01464
91,90000;3,06330;1266,73831;0,01466
92,00000;3,06666;1268,17338;0,01468
92,10000;3,07000;1269,08207;0,01469
92,20000;3,07336;1270,42318;0,01471
92,30000;3,07666;1271,36325;0,01473
92,40000;3,07997;1272,22808;0,01475
92,50000;3,08324;1272,98944;0,01477
92,60000;3,08663;1274,86950;0,01479
92,70000;3,09000;1275,96622;0,01480
92,80000;3,09333;1277,96540;0,01482
92,90000;3,09669;1278,68289;0,01484
93,00000;3,10005;1279,06837;0,01486
93,10000;3,10339;1280,68514;0,01488
93,20000;3,10672;1281,14894;0,01490
93,30000;3,11008;1282,65610;0,01492
93,40000;3,11342;1283,50528;0,01493
93,50000;3,11672;1285,37277;0,01495
93,60000;3,12002;1287,00528;0,01497
93,70000;3,12333;1287,78554;0,01499
93,80000;3,12658;1289,14546;0,01501
93,90000;3,12994;1290,21704;0,01502
94,00000;3,13333;1291,17277;0,01504
94,10000;3,13666;1292,66111;0,01507
94,20000;3,14003;1293,65129;0,01508
94,30000;3,14339;1294,76674;0,01510
94,40000;3,14669;1295,52195;0,01512
94,50000;3,14997;1296,25518;0,01514
94,60000;3,15336;1298,42032;0,01516
94,70000;3,15672;1298,93739;0,01518
94,80000;3,16005;1300,63882;0,01519
94,90000;3,16339;1301,40334;0,01521
95,00000;3,16669;1302,51888;0,01523
95,10000;3,16994;1303,58115;0,01525
95,20000;3,17327;1304,51173;0,01527
95,30000;3,17666;1306,40743;0,01529
95,40000;3,18002;1307,16264;0,01530
95,50000;3,18336;1308,26868;0,01532
95,60000;3,18666;1310,25529;0,01534
95,70000;3,18997;1310,28034;0,01536
95,80000;3,19322;1311,68729;0,01537
95,90000;3,19661;1312,75887;0,01539
96,00000;3,19997;1313,58616;0,01541
96,10000;3,20336;1315,21551;0,01543
96,20000;3,20672;1316,57859;0,01545
96,30000;3,21008;1317,38381;0,01547
96,40000;3,21339;1318,78452;0,01549
96,50000;3,21666;1320,49220;0,01551
96,60000;3,22000;1321,27246;0,01553
96,70000;3,22333;1322,27195;0,01555
96,80000;3,22666;1323,43136;0,01557
96,90000;3,23000;1323,95774;0,01558
97,00000;3,23336;1326,10733;0,01560
97,10000;3,23663;1326,57420;0,01562
97,20000;3,24000;1327,91214;0,01564
97,30000;3,24342;1329,41306;0,01566
97,40000;3,24678;1330,37185;0,01568
97,50000;3,25011;1331,21479;0,01570
97,60000;3,25344;1332,35538;0,01572
97,70000;3,25672;1333,41132;0,01574
97,80000;3,25997;1335,41981;0,01575
97,90000;3,26333;1335,83350;0,01577
98,00000;3,26666;1336,73279;0,01579
98,10000;3,27000;1338,55641;0,01581
98,20000;3,27330;1339,17993;0,01583
98,30000;3,27663;1340,53361;0,01585
98,40000;3,27991;1341,54567;0,01587
98,50000;3,28322;1342,06582;0,01588
98,60000;3,28661;1343,40068;0,01590
98,70000;3,28997;1344,64148;0,01592
98,80000;3,29333;1346,24895;0,01594
98,90000;3,29669;1347,33627;0,01596
99,00000;3,30005;1347,85641;0,01598
99,10000;3,30336;1349,58606;0,01600
99,20000;3,30672;1351,03688;0,01602
99,30000;3,31008;1351,86091;0,01604
99,40000;3,31339;1352,35284;0,01606
99,50000;3,31669;1354,51183;0,01608
99,60000;3,32002;1356,06602;0,01610
99,70000;3,32333;1356,44516;0,01611
99,80000;3,32658;1357,67348;0,01613
99,90000;3,32994;1358,45989;0,01615
100,00000;3,33333;1359,34046;0,01617
100,10000;3,33669;1361,19230;0,01619
100,20000;3,34002;1361,52124;0,01621
100,30000;3,34339;1363,60815;0,01623
100,40000;3,34669;1363,92461;0,01625
100,50000;3,35000;1366,15876;0,01627
100,60000;3,35339;1366,31541;0,01629
100,70000;3,35675;1367,67533;0,01631
100,80000;3,36008;1368,69997;0,01633
100,90000;3,36336;1370,02543;0,01635
101,00000;3,36666;1370,65519;0,01636
101,10000;3,36994;1371,54823;0,01638
101,20000;3,37330;1373,15253;0,01640
101,30000;3,37666;1374,32134;0,01642
101,40000;3,38000;1375,44312;0,01644
101,50000;3,38336;1377,04117;0,01646
101,60000;3,38669;1378,37594;0,01648
101,70000;3,39000;1377,91540;0,01650
101,80000;3,39330;1379,67952;0,01652
101,90000;3,39669;1380,61009;0,01654
102,00000;3,40011;1381,95744;0,01656
102,10000;3,40344;1383,57747;0,01658
102,20000;3,40675;1384,19475;0,01660
102,30000;3,41005;1385,54843;0,01662
102,40000;3,41330;1387,09946;0,01664
102,50000;3,41658;1387,60079;0,01665
102,60000;3,41997;1389,21132;0,01667
102,70000;3,42333;1389,03279;0,01669
102,80000;3,42666;1391,12277;0,01671
102,90000;3,43000;1392,25703;0,01673
103,00000;3,43333;1393,68586;0,01676
103,10000;3,43661;1394,33770;0,01677
103,20000;3,44000;1396,33054;0,01679
103,30000;3,44339;1397,06060;0,01681
103,40000;3,44675;1397,94732;0,01683
103,50000;3,45008;1399,57676;0,01686
103,60000;3,45341;1400,81132;0,01688
103,70000;3,45669;1401,78269;0,01689
103,80000;3,45997;1402,39373;0,01691
103,90000;3,46330;1403,22717;0,01693
104,00000;3,46666;1405,24199;0,01695
104,10000;3,47000;1405,95641;0,01697
104,20000;3,47333;1407,25989;0,01699
104,30000;3,47663;1408,32216;0,01701
104,40000;3,47994;1408,74516;0,01703
104,50000;3,48324;1409,74158;0,01705
104,60000;3,48661;1410,75365;0,01707
104,70000;3,48994;1412,19506;0,01709
104,80000;3,49327;1413,16010;0,01711
104,90000;3,49666;1414,40406;0,01713
105,00000;3,50005;1415,32533;0,01715
105,10000;3,50336;1416,90457;0,01717
105,20000;3,50669;1417,45294;0,01719
105,30001;3,51008;1419,09486;0,01721
105,40001;3,51341;1419,75917;0,01723
105,50001;3,51672;1421,41674;0,01725
105,60001;3,52002;1422,62625;0,01727
105,70001;3,52333;1423,51920;0,01728
105,80001;3,52661;1423,86081;0,01730
105,90001;3,53000;1425,46510;0,01733
106,00001;3,53341;1426,53985;0,01735
106,10001;3,53678;1427,47359;0,01736
106,20001;3,54011;1429,23770;0,01739
106,30001;3,54344;1430,31878;0,01741
106,40001;3,54669;1431,09895;0,01743
106,50001;3,54997;1432,38371;0,01745
106,60001;3,55333;1433,33310;0,01747
106,70001;3,55666;1434,61470;0,01749
106,80001;3,56000;1435,66756;0,01750
106,90001;3,56333;1436,94915;0,01752
107,00001;3,56663;1436,98985;0,01754
107,10001;3,56991;1438,61612;0,01756
107,20001;3,57324;1439,33361;0,01758
107,30001;3,57663;1440,70294;0,01760
107,40001;3,58000;1442,16316;0,01762
107,50001;3,58336;1443,20028;0,01764
107,60001;3,58669;1444,66050;0,01766
107,70001;3,59000;1444,83596;0,01768
107,80001;3,59327;1446,36817;0,01770
107,90001;3,59666;1447,72185;0,01772
108,00001;3,60002;1448,99711;0,01774
108,10001;3,60339;1449,85886;0,01776
108,20001;3,60675;1450,84271;0,01778
108,30001;3,61008;1452,01460;0,01780
108,40001;3,61333;1453,44036;0,01782
108,50001;3,61661;1453,81633;0,01784
108,60001;3,61997;1455,49271;0,01786
108,70001;3,62333;1456,97165;0,01788
108,80001;3,62663;1457,53259;0,01790
108,90001;3,62997;1458,72328;0,01792
109,00001;3,63330;1459,67584;0,01794
109,10001;3,63661;1461,00754;0,01796
109,20001;3,64000;1461,85048;0,01798
109,30001;3,64341;1462,85938;0,01800
109,40001;3,64675;1464,17227;0,01802
109,50001;3,65008;1464,46368;0,01804
109,60001;3,65341;1465,91449;0,01806
109,70001;3,65672;1467,40284;0,01808
109,80001;3,65997;1467,78515;0,01810
109,90001;3,66330;1469,21081;0,01812
110,00001;3,66666;1470,59895;0,01814
110,10001;3,67000;1471,10028;0,01816
110,20001;3,67339;1473,35948;0,01818
110,30001;3,67672;1474,29015;0,01820
110,40001;3,68000;1474,91368;0,01821
110,50001;3,68327;1475,92267;0,01823
110,60001;3,68663;1476,70601;0,01826
110,70001;3,69000;1478,02206;0,01828
110,80001;3,69336;1479,03729;0,01830
110,90001;3,69669;1480,13085;0,01832
111,00001;3,70005;1481,24006;0,01834
111,10001;3,70330;1482,34302;0,01836
111,20001;3,70666;1483,68413;0,01838
111,30001;3,71000;1484,47063;0,01840
111,40001;3,71336;1485,32605;0,01842
111,50001;3,71669;1488,00826;0,01844
111,60001;3,72002;1488,46572;0,01846
111,70001;3,72333;1488,86368;0,01848
111,80001;3,72661;1489,61572;0,01850
111,90001;3,73000;1490,95058;0,01852
112,00001;3,73339;1492,54547;0,01854
112,10001;3,73675;1493,20662;0,01856
112,20001;3,74008;1493,63903;0,01858
112,30001;3,74339;1494,90181;0,01860
112,40001;3,74669;1496,60017;0,01862
112,50001;3,75000;1497,75948;0,01864
112,60001;3,75336;1498,19506;0,01866
112,70001;3,75669;1499,62390;0,01868
112,80001;3,76002;1500,52942;0,01870
112,90001;3,76333;1501,25017;0,01872
113,00001;3,76666;1502,66960;0,01874
113,10001;3,76991;1504,10784;0,01876
113,20001;3,77324;1505,10110;0,01878
113,30001;3,77663;1505,56490;0,01880
113,40001;3,78002;1506,13831;0,01882
113,50001;3,78336;1508,78914;0,01884
113,60001;3,78669;1509,07738;0,01887
113,70001;3,79000;1509,96102;0,01889
113,80001;3,79324;1511,23321;0,01891
113,90001;3,79663;1511,84741;0,01893
114,00001;3,80002;1512,47093;0,01895
114,10001;3,80341;1513,68985;0,01897
114,20001;3,80675;1515,44139;0,01899
114,30001;3,81008;1516,64782;0,01901
114,40001;3,81336;1517,12094;0,01903
114,50001;3,81666;1518,11419;0,01905
114,60001;3,82002;1520,07891;0,01907
114,70001;3,82336;1520,62094;0,01909
114,80001;3,82672;1521,58290;0,01912
114,90001;3,83005;1522,56060;0,01914
115,00001;3,83339;1523,51623;0,01916
115,10001;3,83663;1525,70968;0,01918
115,20001;3,84000;1525,64384;0,01920
115,30001;3,84333;1527,43617;0,01922
115,40001;3,84672;1528,24456;0,01924
115,50001;3,85002;1529,10938;0,01926
115,60001;3,85336;1530,73249;0,01928
115,70001;3,85666;1531,29026;0,01931
115,80001;3,85994;1532,70969;0,01933
115,90001;3,86330;1533,48055;0,01934
116,00001;3,86666;1534,55846;0,01937
116,10001;3,87000;1535,90897;0,01939
116,20001;3,87336;1537,18116;0,01941
116,30001;3,87669;1537,66051;0,01943
116,40001;3,88000;1537,92370;0,01945
116,50001;3,88327;1539,34946;0,01947
116,60001;3,88663;1540,46807;0,01949
116,70001;3,89000;1542,11000;0,01951
116,80001;3,89333;1541,82483;0,01953
116,90001;3,89669;1543,40100;0,01956
117,00001;3,90005;1544,67942;0,01958
117,10001;3,90333;1546,15212;0,01960
117,20001;3,90669;1547,46193;0,01962
117,30001;3,91002;1547,24251;0,01964
117,40001;3,91339;1548,39251;0,01966
117,50001;3,91672;1549,92165;0,01969
117,60001;3,92002;1550,67053;0,01971
117,70001;3,92333;1552,19967;0,01973
117,80001;3,92660;1552,98300;0,01975
117,90001;3,92997;1554,00131;0,01977
118,00001;3,93336;1555,48342;0,01979
118,10001;3,93672;1557,03761;0,01981
118,20001;3,94008;1557,38546;0,01983
118,30001;3,94341;1558,01838;0,01986
118,40001;3,94669;1559,71041;0,01988
118,50001;3,95000;1560,71316;0,01990
118,60001;3,95336;1562,25478;0,01992
118,70001;3,95672;1562,81572;0,01994
118,80001;3,96008;1563,61461;0,01996
118,90001;3,96341;1564,45447;0,01999
119,00001;3,96672;1565,56051;0,02001
119,10001;3,96997;1567,06460;0,02003
119,20001;3,97327;1567,70684;0,02005
119,30001;3,97663;1568,73781;0,02007
119,40001;3,98000;1569,30499;0,02009
119,50001;3,98333;1570,67422;0,02011
119,60001;3,98663;1571,13802;0,02013
119,70001;3,98994;1572,55754;0,02015
119,80001;3,99321;1573,27186;0,02017
119,90001;3,99660;1574,73516;0,02020
120,00001;4,00002;1575,51859;0,02022
120,10001;4,00341;1576,52758;0,02024
120,20001;4,00675;1577,86552;0,02026
120,30001;4,01011;1578,37309;0,02028
120,40001;4,01339;1579,15950;0,02030
120,50001;4,01666;1580,97073;0,02033
120,60001;4,02002;1582,26471;0,02035
120,70001;4,02339;1582,77564;0,02037
120,80001;4,02669;1584,41756;0,02039
120,90001;4,03002;1585,12257;0,02041
121,00001;4,03336;1585,51726;0,02043
121,10001;4,03663;1587,21562;0,02045
121,20001;4,03997;1588,09610;0,02048
121,30001;4,04333;1589,38393;0,02050
121,40001;4,04672;1590,17667;0,02052
121,50001;4,05005;1591,34232;0,02054
121,60001;4,05336;1592,37012;0,02057
121,70001;4,05666;1592,66461;0,02058
121,80001;4,05997;1594,51030;0,02061
121,90001;4,06330;1595,48465;0,02063
122,00001;4,06666;1595,89835;0,02065
122,10001;4,07000;1597,07330;0,02067
122,20001;4,07336;1598,28290;0,02069
122,30001;4,07669;1599,14140;0,02071
122,40001;4,07994;1599,90918;0,02074
122,50001;4,08324;1600,81163;0,02076
122,60001;4,08663;1602,39395;0,02078
122,70001;4,09000;1603,47503;0,02080
122,80001;4,09333;1604,53413;0,02082
122,90001;4,09669;1605,24528;0,02084
123,00001;4,10008;1606,93433;0,02087
123,10001;4,10339;1608,25662;0,02089
123,20001;4,10678;1608,46971;0,02091
123,30001;4,11011;1608,88322;0,02093
123,40001;4,11344;1610,20551;0,02096
123,50001;4,11672;1611,80049;0,02098
123,60001;4,12002;1613,00991;0,02100
123,70001;4,12330;1613,17606;0,02102
123,80001;4,12658;1613,92186;0,02104
123,90001;4,12994;1615,47605;0,02106
124,00001;4,13333;1616,05570;0,02108
124,10001;4,13669;1617,86359;0,02111
124,20001;4,14005;1618,83496;0,02113
124,30001;4,14339;1619,74058;0,02115
124,40001;4,14669;1620,16675;0,02117
124,50001;4,14997;1621,57360;0,02119
124,60001;4,15333;1622,65785;0,02122
124,70001;4,15672;1624,45959;0,02124
124,80001;4,16005;1624,61307;0,02126
124,90001;4,16339;1625,54998;0,02128
125,00001;4,16669;1626,76573;0,02131
125,10001;4,16994;1627,72760;0,02133
125,20001;4,17327;1628,66153;0,02135
125,30001;4,17663;1629,44160;0,02137
125,40001;4,18000;1630,21255;0,02139
125,50001;4,18333;1631,21521;0,02142
125,60001;4,18666;1632,64088;0,02144
125,70001;4,18997;1633,41798;0,02146
125,80001;4,19324;1634,05091;0,02148
125,90001;4,19660;1635,52053;0,02150
126,00001;4,20000;1636,53884;0,02153
126,10001;4,20339;1638,41266;0,02155
126,20001;4,20675;1639,13965;0,02157
126,30001;4,21011;1639,97002;0,02160
126,40001;4,21339;1639,82902;0,02162
126,50001;4,21666;1641,73096;0,02164
126,60001;4,21999;1642,43914;0,02166
126,70001;4,22333;1643,24753;0,02168
126,80001;4,22666;1644,66389;0,02171
126,90001;4,22999;1645,49742;0,02173
127,00001;4,23336;1646,08955;0,02175
127,10001;4,23663;1647,57799;0,02177
127,20001;4,24000;1648,95672;0,02180
127,30001;4,24339;1650,10970;0,02182
127,40001;4,24675;1650,83986;0,02184
127,50001;4,25011;1651,71083;0,02187
127,60001;4,25344;1652,79508;0,02189
127,70001;4,25672;1653,00183;0,02191
127,80001;4,25997;1654,51840;0,02193
127,90001;4,26330;1655,05428;0,02195
128,00001;4,26666;1656,20744;0,02198
128,10001;4,26999;1657,72717;0,02200
128,20001;4,27330;1658,68904;0,02202
128,30001;4,27663;1659,49129;0,02204
128,40001;4,27991;1660,39988;0,02207
128,50001;4,28321;1661,20511;0,02209
128,60001;4,28663;1662,50877;0,02211
128,70001;4,28999;1662,68107;0,02213
128,80001;4,29333;1664,48280;0,02216
128,90001;4,29669;1665,18148;0,02218
129,00001;4,30005;1666,16533;0,02220
129,10001;4,30336;1667,20562;0,02222
129,20001;4,30672;1668,16767;0,02225
129,30001;4,31008;1668,90714;0,02227
129,40001;4,31338;1669,52126;0,02229
129,50001;4,31669;1670,66809;0,02231
129,60001;4,32002;1672,27238;0,02234
129,70001;4,32333;1672,84906;0,02236
129,80001;4,32660;1673,53526;0,02238
129,90001;4,32997;1674,84190;0,02241
130,00001;4,33333;1676,56522;0,02243
130,10001;4,33666;1677,00704;0,02245
130,20001;4,33999;1678,27290;0,02248
130,30001;4,34336;1678,88720;0,02250
130,40001;4,34666;1679,45120;0,02252
130,50001;4,34997;1680,41624;0,02254
130,60001;4,35336;1682,29938;0,02257
130,70001;4,35672;1682,53127;0,02259
130,80001;4,36005;1682,92932;0,02261
130,90001;4,36336;1685,38895;0,02264
131,00001;4,36669;1685,55509;0,02266
131,10001;4,36994;1686,70192;0,02268
131,20001;4,37330;1688,30939;0,02271
131,30001;4,37666;1688,96727;0,02273
131,40001;4,38002;1689,14590;0,02275
131,50001;4,38336;1690,47136;0,02277
131,60001;4,38669;1691,41777;0,02280
131,70001;4,38999;1691,93465;0,02282
131,80001;4,39330;1692,80581;0,02284
131,90001;4,39672;1693,95264;0,02287
132,00001;4,40011;1694,75172;0,02289
132,10001;4,40344;1695,96747;0,02291
132,20001;4,40675;1696,35601;0,02294
132,30001;4,41005;1697,77218;0,02296
132,40001;4,41330;1698,69978;0,02298
132,50001;4,41658;1699,45490;0,02301
132,60001;4,41997;1701,23149;0,02303
132,70001;4,42333;1701,68914;0,02305
132,80001;4,42666;1702,83597;0,02308
132,90001;4,42999;1703,46890;0,02310
133,00001;4,43333;1704,65335;0,02312
133,10001;4,43660;1705,55264;0,02315
133,20001;4,43999;1706,53649;0,02317
133,30001;4,44336;1707,56113;0,02319
133,40001;4,44675;1708,62023;0,02322
133,50001;4,45008;1708,78004;0,02324
133,60001;4,45341;1709,70745;0,02327
133,70001;4,45666;1711,18341;0,02329
133,80001;4,45994;1711,52800;0,02331
133,90001;4,46327;1712,29579;0,02333
134,00001;4,46666;1713,71195;0,02336
134,10001;4,46999;1714,92472;0,02338
134,20001;4,47333;1715,30060;0,02340
134,30001;4,47666;1716,40366;0,02343
134,40001;4,47994;1716,96767;0,02345
134,50001;4,48324;1718,26482;0,02348
134,60001;4,48663;1719,26133;0,02350
134,70001;4,48999;1719,78772;0,02352
134,80001;4,49330;1721,07872;0,02354
134,90001;4,49666;1721,80571;0,02357
135,00001;4,50008;1722,67985;0,02359
135,10001;4,50336;1724,52554;0,02362
135,20001;4,50672;1724,74161;0,02364
135,30001;4,51008;1725,79754;0,02366
135,40001;4,51341;1726,28649;0,02369
135,50001;4,51672;1727,17944;0,02371
135,60001;4,52002;1727,44580;0,02373
135,70001;4,52333;1729,03445;0,02376
135,80001;4,52660;1730,30347;0,02378
135,90001;4,53000;1731,44415;0,02380
136,00001;4,53338;1731,72615;0,02383
136,10001;4,53675;1732,72882;0,02385
136,20001;4,54008;1733,43383;0,02388
136,30001;4,54341;1734,79374;0,02390
136,40001;4,54669;1735,85285;0,02392
136,50001;4,54997;1736,62361;0,02395
136,60001;4,55333;1737,30366;0,02397
136,70001;4,55669;1738,86716;0,02400
136,80001;4,56002;1739,68803;0,02402
136,90001;4,56333;1740,31798;0,02404
137,00001;4,56663;1741,10439;0,02407
137,10001;4,56991;1742,53006;0,02409
137,20001;4,57327;1742,58649;0,02412
137,30001;4,57663;1743,73016;0,02414
137,40001;4,57999;1744,84253;0,02416
137,50001;4,58333;1745,58833;0,02419
137,60001;4,58666;1747,05163;0,02421
137,70001;4,58997;1747,10806;0,02424
137,80001;4,59327;1747,96972;0,02426
137,90001;4,59666;1749,58669;0,02428
138,00001;4,60002;1749,87167;0,02431
138,10001;4,60341;1750,81491;0,02433
138,20001;4,60675;1751,14069;0,02436
138,30001;4,61008;1753,12422;0,02438
138,40001;4,61333;1753,83873;0,02440
138,50001;4,61663;1754,10807;0,02443
138,60001;4,61997;1755,43986;0,02445
138,70001;4,62333;1756,37677;0,02447
138,80001;4,62663;1756,88434;0,02450
138,90001;4,62997;1758,03117;0,02452
139,00001;4,63330;1758,13138;0,02455
139,10001;4,63660;1759,92381;0,02457
139,20001;4,63999;1760,54724;0,02460
139,30001;4,64338;1761,14272;0,02462
139,40001;4,64675;1762,02636;0,02464
139,50001;4,65008;1763,59620;0,02467
139,60001;4,65341;1764,96860;0,02469
139,70001;4,65669;1765,32902;0,02472
139,80001;4,65997;1765,75202;0,02474
139,90001;4,66330;1766,88004;0,02477
140,00001;4,66669;1768,14590;0,02479
140,10001;4,67002;1768,73803;0,02482
140,20001;4,67338;1769,44304;0,02484
140,30001;4,67672;1770,63383;0,02486
140,40001;4,68002;1771,84641;0,02489
140,50001;4,68333;1772,18486;0,02491
140,60001;4,68666;1772,62034;0,02494
140,70001;4,69002;1774,34701;0,02496
140,80001;4,69336;1775,85091;0,02499
140,90001;4,69672;1776,45572;0,02501
141,00001;4,70005;1776,46521;0,02504
141,10001;4,70333;1777,47104;0,02506
141,20001;4,70666;1778,49252;0,02508
141,30001;4,71002;1778,58323;0,02511
141,40001;4,71336;1780,17821;0,02514
141,50001;4,71669;1780,77351;0,02516
141,60001;4,72002;1782,00509;0,02518
141,70001;4,72333;1782,23997;0,02521
141,80001;4,72660;1782,72892;0,02523
141,90001;4,72997;1784,12013;0,02526
142,00001;4,73336;1784,84395;0,02528
142,10001;4,73675;1785,93751;0,02531
142,20001;4,74008;1786,52033;0,02533
142,30001;4,74338;1787,78935;0,02536
142,40001;4,74666;1788,21553;0,02538
142,50001;4,74997;1788,83281;0,02540
142,60001;4,75336;1789,98280;0,02543
142,70001;4,75669;1791,26430;0,02545
142,80001;4,76002;1792,24499;0,02548
142,90001;4,76336;1793,21337;0,02550
143,00001;4,76666;1793,50786;0,02553
143,10001;4,76994;1794,66717;0,02555
143,20001;4,77330;1795,09334;0,02558
143,30001;4,77666;1795,86411;0,02560
143,40001;4,77999;1796,14294;0,02563
143,50001;4,78333;1796,85745;0,02565
143,60001;4,78666;1798,77821;0,02568
143,70001;4,78997;1799,12597;0,02570
143,80001;4,79324;1799,96267;0,02573
143,90001;4,79660;1801,08435;0,02576
144,00001;4,80005;1802,18425;0,02578
144,10001;4,80344;1803,03976;0,02581
144,20001;4,80678;1803,61625;0,02583
144,30001;4,81011;1804,39334;0,02586
144,40001;4,81336;1805,38986;0,02588
144,50001;4,81666;1805,67186;0,02591
144,60001;4,81999;1806,79038;0,02593
144,70001;4,82336;1807,54252;0,02595
144,80001;4,82669;1808,28813;0,02598
144,90001;4,83005;1809,38486;0,02601
145,00001;4,83336;1810,06789;0,02603
145,10001;4,83660;1811,08322;0,02605
145,20001;4,83994;1811,85398;0,02608
145,30001;4,84333;1812,87248;0,02610
145,40001;4,84669;1813,47392;0,02613
145,50001;4,85005;1814,24804;0,02616
145,60001;4,85338;1815,76461;0,02618
145,70001;4,85672;1815,68619;0,02621
145,80001;4,85997;1816,47576;0,02623
145,90001;4,86333;1817,92341;0,02625
146,00001;4,86669;1818,54703;0,02628
146,10001;4,87005;1819,63742;0,02631
146,20001;4,87338;1820,14201;0,02633
146,30001;4,87672;1820,14201;0,02636
146,40001;4,87999;1822,17862;0,02638
146,50001;4,88327;1822,06277;0,02641
146,60001;4,88663;1823,37873;0,02643
146,70001;4,88999;1823,75163;0,02646
146,80001;4,89333;1825,23690;0,02648
146,90001;4,89666;1826,31165;0,02651
147,00001;4,90002;1826,55286;0,02654
147,10001;4,90330;1827,49927;0,02656
147,20001;4,90666;1828,02882;0,02658
147,30001;4,91002;1828,80592;0,02661
147,40001;4,91336;1829,41053;0,02664
147,50001;4,91669;1830,45100;0,02666
147,60001;4,92002;1831,71686;0,02669
147,70001;4,92333;1832,27137;0,02671
147,80001;4,92660;1832,61614;0,02674
147,90001;4,92997;1833,62197;0,02676
148,00001;4,93336;1834,63097;0,02679
148,10001;4,93675;1834,89416;0,02681
148,20001;4,94008;1835,56788;0,02684
148,30001;4,94341;1836,57371;0,02687
148,40001;4,94669;1837,87718;0,02689
148,50001;4,94997;1838,29386;0,02692
148,60001;4,95336;1839,45633;0,02694
148,70001;4,95672;1839,19631;0,02697
148,80001;4,96008;1840,49979;0,02699
148,90001;4,96341;1841,46184;0,02702
149,00001;4,96672;1841,54008;0,02704
149,10001;4,96999;1842,94693;0,02707
149,20001;4,97330;1843,74601;0,02709
149,30001;4,97666;1844,36012;0,02712
149,40001;4,97999;1845,10276;0,02715
149,50001;4,98333;1846,41890;0,02717
149,60001;4,98663;1847,22412;0,02720
149,70001;4,98997;1847,26175;0,02722
149,80001;4,99324;1847,78497;0,02725
149,90001;4,99663;1848,43987;0,02728
150,00001;5,00002;1849,78731;0,02730
150,10001;5,00338;1850,18834;0,02733
150,20001;5,00675;1850,95295;0,02735
150,30001;5,01005;1851,25992;0,02738
150,40001;5,01333;1853,44405;0,02741
150,50001;5,01663;1853,70408;0,02743
150,60001;5,01999;1854,70674;0,02746
150,70001;5,02336;1855,31471;0,02748
150,80001;5,02669;1856,36431;0,02751
150,90001;5,02999;1856,59621;0,02754
151,00001;5,03336;1857,26359;0,02756
151,10001;5,03663;1857,77117;0,02759
151,20001;5,03997;1858,74254;0,02761
151,30001;5,04333;1859,94897;0,02764
151,40001;5,04672;1860,71359;0,02767
151,50001;5,05005;1861,15541;0,02769
151,60001;5,05336;1862,98210;0,02772
151,70001;5,05666;1862,06084;0,02774
151,80001;5,05997;1862,60305;0,02777
151,90001;5,06330;1863,77484;0,02780
152,00001;5,06669;1865,24764;0,02782
152,10001;5,07002;1866,00909;0,02785
152,20001;5,07336;1866,65766;0,02787
152,30001;5,07666;1867,19038;0,02790
152,40001;5,07997;1867,70726;0,02793
152,50001;5,08327;1868,50633;0,02795
152,60001;5,08663;1869,22085;0,02798
152,70001;5,08999;1870,07617;0,02801
152,80001;5,09336;1871,02873;0,02803
152,90001;5,09672;1871,53332;0,02806
153,00001;5,10008;1871,69313;0,02808
153,10001;5,10338;1872,73342;0,02811
153,20001;5,10675;1873,52933;0,02814
153,30001;5,11011;1874,12463;0,02817
153,40001;5,11341;1876,04539;0,02819
153,50001;5,11672;1875,50336;0,02822
153,60001;5,12002;1876,90705;0,02825
153,70001;5,12330;1877,05122;0,02827
153,80001;5,12655;1877,40847;0,02830
153,90001;5,12994;1878,54897;0,02832
154,00001;5,13333;1879,50786;0,02835
154,10001;5,13666;1879,93404;0,02837
154,20001;5,14002;1880,83649;0,02840
154,30001;5,14336;1882,07403;0,02843
154,40001;5,14669;1882,67883;0,02846
154,50001;5,14997;1882,80102;0,02848
154,60001;5,15336;1883,80070;0,02851
154,70001;5,15672;1884,14846;0,02854
154,80001;5,16005;1884,57146;0,02856
154,90001;5,16338;1885,40798;0,02859
155,00001;5,16669;1886,36053;0,02861
155,10001;5,16994;1886,94336;0,02864
155,20001;5,17327;1888,43496;0,02867
155,30001;5,17666;1888,70449;0,02869
155,40001;5,17999;1889,60694;0,02872
155,50001;5,18333;1890,42147;0,02875
155,60001;5,18666;1891,13915;0,02877
155,70001;5,18997;1891,51820;0,02880
155,80001;5,19321;1891,75643;0,02883
155,90001;5,19657;1892,60859;0,02885
156,00001;5,19997;1893,04110;0,02888
156,10001;5,20338;1894,39468;0,02891
156,20001;5,20675;1894,62658;0,02894
156,30001;5,21011;1895,60112;0,02896
156,40001;5,21338;1895,98966;0,02899
156,50001;5,21663;1897,15531;0,02901
156,60001;5,21997;1898,50256;0,02904
156,70001;5,22333;1898,59346;0,02907
156,80001;5,22666;1899,59928;0,02910
156,90001;5,23002;1899,69018;0,02912
157,00001;5,23338;1900,15715;0,02915
157,10001;5,23666;1900,95603;0,02918
157,20001;5,24002;1902,51339;0,02921
157,30001;5,24341;1902,82054;0,02923
157,40001;5,24677;1904,21175;0,02926
157,50001;5,25014;1904,28700;0,02929
157,60001;5,25344;1904,80389;0,02931
157,64001;5,25475;1568,75979;0,02959
157,64601;5,25495;1236,13095;0,03071
157,64801;5,25504;1122,40016;0,03114
